time (s)	coil I (A)	last det (V)	int current (uC)
7416.694024	0.361742	232.910156	238.281250
7416.696025	0.677216	232.910156	238.281250
7416.698026	0.830207	232.910156	238.281250
7416.700024	0.828546	9.114003	0.004508
7417.758067	0.804519	-81.835937	-142.675781
7417.760069	0.829334	-81.835937	-142.675781
7417.762069	0.827337	9.100709	0.014954
7418.770550	0.501517	236.035156	237.207031
7418.772551	0.781653	236.035156	237.207031
7418.774553	0.829514	236.035156	237.207031
7418.776551	0.827222	9.099442	0.005195
7419.836543	0.829295	-83.398437	-144.335937
7419.838543	0.828010	9.108109	0.013789
7420.848534	0.546267	228.515625	239.355469
7420.850537	0.803157	228.515625	239.355469
7420.852536	0.828996	228.515625	239.355469
7420.854538	0.827051	9.097564	0.003463
7421.909476	0.479161	-86.914062	-144.238281
7421.911479	0.768446	-86.914062	-144.238281
7421.913478	0.829384	-86.914062	-144.238281
7421.915478	0.826944	9.096385	0.015032
7422.919513	0.287095	238.964844	235.058594
7422.921515	0.607040	238.964844	235.058594
7422.923516	0.821427	238.964844	235.058594
7422.927513	0.826261	238.964844	235.058594
7422.929515	0.825071	9.075780	0.005817
7423.987578	0.378890	-89.941406	-144.824219
7423.989581	0.692679	-89.941406	-144.824219
7423.993581	0.829019	-89.941406	-144.824219
7423.995581	0.827412	9.101534	0.012718
7425.001595	0.499989	226.171875	238.769531
7425.003595	0.780678	226.171875	238.769531
7425.005598	0.829144	226.171875	238.769531
7425.007596	0.828986	9.118842	0.004832
7426.062190	0.539818	-84.765625	-146.093750
7426.064193	0.800634	-84.765625	-146.093750
7426.066194	0.829426	-84.765625	-146.093750
7426.068194	0.827229	9.099522	0.015203
7427.080221	0.487950	213.574219	241.308594
7427.082222	0.773725	213.574219	241.308594
7427.084223	0.829554	213.574219	241.308594
7427.086224	0.827189	9.099079	0.005941
7428.135150	0.356517	-87.500000	-146.289062
7428.137154	0.672425	-87.500000	-146.289062
7428.139155	0.830132	-87.500000	-146.289062
7428.141153	0.828734	9.116076	0.013996
7429.163213	0.514894	229.003906	233.691406
7429.165215	0.788298	229.003906	233.691406
7429.167216	0.828628	229.003906	233.691406
7429.169215	0.826481	9.091289	0.005701
7430.207272	0.366309	-86.132812	-144.726562
7430.209274	0.681322	-86.132812	-144.726562
7430.211274	0.830466	-86.132812	-144.726562
7430.213273	0.828615	9.114765	0.012939
7431.245262	0.769910	247.167969	224.121094
7431.247263	0.830217	247.167969	224.121094
7431.249263	0.827678	9.104458	0.008052
7432.281282	0.512688	-83.300781	-141.601562
7432.283284	0.787534	-83.300781	-141.601562
7432.285282	0.829250	-83.300781	-141.601562
7432.287283	0.826964	9.096606	0.010625
7433.321826	0.376112	234.179687	223.535156
7433.323829	0.690158	234.179687	223.535156
7433.325828	0.830876	234.179687	223.535156
7433.327828	0.828629	9.114924	0.008666
7434.353886	0.436778	-81.347656	-135.937500
7434.355888	0.448920	-81.347656	-135.937500
7434.357890	0.830219	-81.347656	-135.937500
7434.359889	0.827521	9.102730	0.008733
7435.403949	0.346944	241.699219	214.843750
7435.405952	0.663706	241.699219	214.843750
7435.407952	0.830047	241.699219	214.843750
7435.409955	0.829120	9.120321	0.011910
7436.430010	0.431421	-79.980469	-128.027344
7436.432013	0.735681	-79.980469	-128.027344
7436.434013	0.830512	-79.980469	-128.027344
7436.436013	0.827839	9.106231	0.006638
7437.478071	0.348799	245.507812	207.324219
7437.480073	0.665239	245.507812	207.324219
7437.482074	0.828919	245.507812	207.324219
7437.484073	0.827938	9.107321	0.012391
7438.506072	0.415913	-85.253906	-120.800781
7438.508073	0.723573	-85.253906	-120.800781
7438.510076	0.830667	-85.253906	-120.800781
7438.512073	0.827979	9.107773	0.008726
7439.554112	0.329566	265.625000	196.679687
7439.556114	0.647229	265.625000	196.679687
7439.558115	0.828448	265.625000	196.679687
7439.560121	0.828936	9.118301	0.012267
7440.596183	0.827102	-89.746094	-115.136719
7440.598183	0.825603	9.081637	0.008515
7441.626688	0.726752	261.621094	195.117187
7441.628695	0.829926	261.621094	195.117187
7441.630694	0.827185	9.099034	0.011889
7442.673294	0.583611	-90.234375	-114.062500
7442.675296	0.816271	-90.234375	-114.062500
7442.677297	0.828929	-90.234375	-114.062500
7442.679297	0.827115	9.098264	0.150617
7443.699362	0.667112	317.089844	183.984375
7443.703361	0.827974	317.089844	183.984375
7443.705364	0.826238	9.088621	0.009269
7444.753410	0.314501	-93.652344	-114.941406
7444.755415	0.632824	-93.652344	-114.941406
7444.757419	0.826150	-93.652344	-114.941406
7444.759417	0.828131	-93.652344	-114.941406
7444.761417	0.826378	9.090155	0.012188
7445.765420	0.279111	294.140625	192.285156
7445.767420	0.599343	294.140625	192.285156
7445.771420	0.828119	294.140625	192.285156
7445.773419	0.826231	294.140625	192.285156
7445.775421	0.824847	9.073317	0.009816
7446.839380	0.728371	-95.019531	-118.359375
7446.841382	0.831268	-95.019531	-118.359375
7446.843383	0.828506	9.113568	0.013781
7447.841391	0.578069	326.171875	190.039062
7447.843393	0.814202	326.171875	190.039062
7447.845394	0.828417	326.171875	190.039062
7447.849392	0.825198	9.077180	0.121453
7448.917421	0.303639	-98.144531	-122.070312
7448.919423	0.622540	-98.144531	-122.070312
7448.921423	0.826969	-98.144531	-122.070312
7448.923424	0.831190	-98.144531	-122.070312
7448.925423	0.829104	9.120145	0.015646
7449.916025	0.731698	287.792969	202.636719
7449.918027	0.830468	287.792969	202.636719
7449.920028	0.827763	9.105398	0.005514
7450.996598	0.292238	-96.875000	-126.269531
7450.998599	0.611783	-96.875000	-126.269531
7451.000600	0.822773	-96.875000	-126.269531
7451.002599	0.828497	-96.875000	-126.269531
7451.004600	0.826636	9.092999	0.014445
7451.990640	0.500083	309.472656	200.097656
7451.992643	0.780621	309.472656	200.097656
7451.994642	0.829328	309.472656	200.097656
7451.996642	0.826946	9.096412	0.005135
7453.074748	0.530934	-99.902344	-128.808594
7453.076748	0.795862	-99.902344	-128.808594
7453.078751	0.828353	-99.902344	-128.808594
7453.080750	0.826148	9.087629	0.016125
7454.065705	0.489177	289.355469	206.054687
7454.067705	0.774221	289.355469	206.054687
7454.069706	0.828931	289.355469	206.054687
7454.071706	0.826639	9.093025	0.005670
7455.150263	0.345774	-96.582031	-130.566406
7455.152265	0.662385	-96.582031	-130.566406
7455.154265	0.829214	-96.582031	-130.566406
7455.156265	0.828468	9.113143	0.016872
7456.142280	0.307176	299.707031	203.320312
7456.144283	0.625826	299.707031	203.320312
7456.146283	0.825213	299.707031	203.320312
7456.148282	0.828451	299.707031	203.320312
7456.150281	0.826630	9.092929	0.005075
7457.228296	0.402526	-95.605469	-131.445312
7457.230299	0.712567	-95.605469	-131.445312
7457.232299	0.830192	-95.605469	-131.445312
7457.234300	0.827598	9.103581	0.018159
7458.222321	0.794136	294.531250	202.734375
7458.226319	0.826373	294.531250	202.734375
7458.228321	0.824973	9.074707	0.005688
7459.304913	0.475107	-96.191406	-129.589844
7459.306916	0.765681	-96.191406	-129.589844
7459.308915	0.829077	-96.191406	-129.589844
7459.310916	0.826599	9.092591	0.015930
7460.298921	0.509511	302.343750	198.339844
7460.300922	0.785825	302.343750	198.339844
7460.302923	0.829268	302.343750	198.339844
7460.304923	0.826913	9.096048	0.005957
7461.380924	0.531384	-94.824219	-128.222656
7461.384925	0.829192	-94.824219	-128.222656
7461.386927	0.827021	-94.824219	-128.222656
7461.388927	0.825694	9.082630	0.015704
7462.376958	0.316833	283.300781	197.167969
7462.380962	0.826482	283.300781	197.167969
7462.382964	0.828277	283.300781	197.167969
7462.384963	0.826472	9.091191	0.008165
7463.453838	0.502466	-99.023437	-123.437500
7463.455840	0.781915	-99.023437	-123.437500
7463.457841	0.828924	-99.023437	-123.437500
7463.461839	0.825155	9.076711	0.014385
7464.458853	0.498306	321.972656	183.789062
7464.460857	0.779420	321.972656	183.789062
7464.462858	0.828928	321.972656	183.789062
7464.464856	0.826569	9.092255	0.008108
7465.528926	0.815742	-93.261719	-122.656250
7465.530928	0.828246	-93.261719	-122.656250
7465.532928	0.826386	9.090243	0.013836
7466.540930	0.541676	288.378906	184.179687
7466.542932	0.800803	288.378906	184.179687
7466.544933	0.828529	288.378906	184.179687
7466.546932	0.826469	9.091156	0.011486
7467.598997	0.505661	-94.921875	-121.777344
7467.601000	0.783342	-94.921875	-121.777344
7467.602999	0.828651	-94.921875	-121.777344
7467.604998	0.826421	9.090633	0.012595
7468.623593	0.438883	284.472656	183.203125
7468.625595	0.741262	284.472656	183.203125
7468.627595	0.831102	284.472656	183.203125
7468.629595	0.828276	9.111033	0.012833
7469.667572	0.356353	-88.671875	-122.753906
7469.669574	0.672264	-88.671875	-122.753906
7469.671574	0.830482	-88.671875	-122.753906
7469.673574	0.829141	9.120552	0.012119
7470.705613	0.554651	251.757812	190.234375
7470.707615	0.806088	251.757812	190.234375
7470.709616	0.828512	251.757812	190.234375
7470.711615	0.826488	9.091369	0.014515
7471.740163	0.522115	-91.796875	-126.953125
7471.742166	0.792061	-91.796875	-126.953125
7471.744164	0.828790	-91.796875	-126.953125
7471.746165	0.826723	9.093947	0.009856
7472.788162	0.673804	247.167969	194.042969
7472.790165	0.829058	247.167969	194.042969
7472.792167	0.827578	9.103359	0.014746
7473.814213	0.433291	-84.765625	-134.277344
7473.816215	0.736957	-84.765625	-134.277344
7473.818215	0.830146	-84.765625	-134.277344
7473.820214	0.827537	9.102907	0.010302
7474.862221	0.340806	238.085937	201.953125
7474.866223	0.828498	238.085937	201.953125
7474.868224	0.828117	238.085937	201.953125
7474.870225	0.826426	9.090687	0.015181
7475.890333	0.588249	-81.347656	-142.480469
7475.892334	0.816798	-81.347656	-142.480469
7475.894334	0.828016	-81.347656	-142.480469
7475.896334	0.826116	9.087275	0.168846
7476.940427	0.424285	232.617187	208.593750
7476.942429	0.730085	232.617187	208.593750
7476.944427	0.829961	232.617187	208.593750
7476.946428	0.827402	9.101427	0.013566
7477.968465	0.332255	-81.738281	-150.097656
7477.970468	0.649648	-81.738281	-150.097656
7477.972469	0.827515	-81.738281	-150.097656
7477.974469	0.827765	9.105415	0.012288
7479.016514	0.652884	246.289062	210.058594
7479.018515	0.828047	246.289062	210.058594
7479.020516	0.828045	9.108500	0.011861
7480.048482	0.538682	-85.351562	-155.859375
7480.050484	0.799327	-85.351562	-155.859375
7480.052484	0.828302	-85.351562	-155.859375
7480.054487	0.826176	9.087939	0.014013
7481.089032	0.399848	243.261719	213.964844
7481.091034	0.710600	243.261719	213.964844
7481.093034	0.831457	243.261719	213.964844
7481.095034	0.828902	9.117920	0.011691
7482.129100	0.511724	-85.351562	-159.765625
7482.131099	0.786685	-85.351562	-159.765625
7482.133100	0.828509	-85.351562	-159.765625
7482.135100	0.826344	9.089782	0.015711
7483.163621	0.395831	207.617187	225.488281
7483.165622	0.707002	207.617187	225.488281
7483.167622	0.829961	207.617187	225.488281
7483.169621	0.827536	9.102899	0.010811
7484.207646	0.487001	-84.472656	-162.597656
7484.209647	0.772836	-84.472656	-162.597656
7484.211648	0.828819	-84.472656	-162.597656
7484.213647	0.826540	9.091936	0.015875
7485.237723	0.309651	236.523437	218.847656
7485.239728	0.628412	236.523437	218.847656
7485.241724	0.827842	236.523437	218.847656
7485.243727	0.830955	236.523437	218.847656
7485.245726	0.828903	9.117929	0.012174
7486.285765	0.390795	-83.398437	-163.964844
7486.287766	0.702684	-83.398437	-163.964844
7486.293764	0.825797	-83.398437	-163.964844
7486.297764	0.823522	9.058746	0.016470
7487.317843	0.757336	253.515625	215.039062
7487.319845	0.829459	253.515625	215.039062
7487.321844	0.826898	9.095880	0.010456
7488.361856	0.377612	-83.496094	-164.550781
7488.363858	0.691348	-83.496094	-164.550781
7488.365858	0.830578	-83.496094	-164.550781
7488.367858	0.828464	9.113099	0.017428
7489.391926	0.530107	232.519531	220.117187
7489.393928	0.795828	232.519531	220.117187
7489.395928	0.828855	232.519531	220.117187
7489.397928	0.826638	9.093018	0.010866
7490.439990	0.529220	-82.519531	-165.332031
7490.441991	0.795475	-82.519531	-165.332031
7490.443991	0.828857	-82.519531	-165.332031
7490.445991	0.826718	9.093894	0.016956
7491.470043	0.676328	240.332031	217.089844
7491.472046	0.828901	240.332031	217.089844
7491.474046	0.827427	9.101693	0.011769
7492.514053	0.442201	-84.179687	-165.136719
7492.516055	0.743528	-84.179687	-165.136719
7492.518055	0.829890	-84.179687	-165.136719
7492.520057	0.827252	9.099771	0.017197
7493.550029	0.710787	216.894531	220.605469
7493.552031	0.715798	216.894531	220.605469
7493.554030	0.827702	9.104724	0.011888
7494.590612	0.735317	-82.031250	-164.160156
7494.592614	0.740997	-82.031250	-164.160156
7494.594614	0.827882	9.106701	0.015149
7495.628632	0.533383	209.375000	219.238281
7495.630634	0.797208	209.375000	219.238281
7495.632632	0.828591	209.375000	219.238281
7495.634632	0.826416	9.090570	0.011508
7496.665641	0.827726	-87.402344	-161.523437
7496.667644	0.827315	9.100461	0.015059
7497.706286	0.280495	222.656250	211.132812
7497.708288	0.600714	222.656250	211.132812
7497.710289	0.820131	222.656250	211.132812
7497.712290	0.828188	222.656250	211.132812
7497.714289	0.826285	9.089135	0.014042
7498.736349	0.354079	-83.300781	-157.714844
7498.738350	0.670111	-83.300781	-157.714844
7498.742348	0.828941	-83.300781	-157.714844
7498.744350	0.827256	9.099814	0.013979
7499.786364	0.501449	232.226562	203.515625
7499.788367	0.781113	232.226562	203.515625
7499.790367	0.828714	232.226562	203.515625
7499.792367	0.826398	9.090376	0.014577
7500.812356	0.571624	-84.570312	-151.660156
7500.814357	0.811581	-84.570312	-151.660156
7500.818355	0.825652	-84.570312	-151.660156
7500.820356	0.824322	9.067547	0.092047
7501.864346	0.545236	231.347656	196.875000
7501.866348	0.802226	231.347656	196.875000
7501.868352	0.828428	231.347656	196.875000
7501.870352	0.826375	9.090128	0.016254
7502.888357	0.384780	-85.546875	-145.019531
7502.890359	0.697476	-85.546875	-145.019531
7502.892360	0.830014	-85.546875	-145.019531
7502.894360	0.827809	9.105903	0.012156
7503.938441	0.381776	245.410156	188.183594
7503.940441	0.694862	245.410156	188.183594
7503.942442	0.829703	245.410156	188.183594
7503.944443	0.827514	9.102659	0.017752
7504.968490	0.529304	-88.671875	-138.378906
7504.970492	0.795359	-88.671875	-138.378906
7504.972491	0.828671	-88.671875	-138.378906
7504.974493	0.826513	9.091643	0.013000
7506.016484	0.820974	266.796875	179.687500
7506.018486	0.828066	266.796875	179.687500
7506.020486	0.826139	9.087531	0.255547
7507.050528	0.487023	-93.847656	-133.593750
7507.052531	0.772841	-93.847656	-133.593750
7507.054530	0.828938	-93.847656	-133.593750
7507.056529	0.826565	9.092211	0.013663
7508.087150	0.803082	257.031250	179.003906
7508.089150	0.828653	257.031250	179.003906
7508.091149	0.826685	9.093540	0.016666
7509.135715	0.825105	-96.093750	-132.128906
7509.137716	0.828426	-96.093750	-132.128906
7509.139715	0.826547	9.092015	0.369040
7510.156300	0.484321	289.843750	174.316406
7510.158302	0.771234	289.843750	174.316406
7510.160303	0.828995	289.843750	174.316406
7510.162304	0.826496	9.091457	0.015577
7511.216351	0.527811	-99.121094	-132.910156
7511.218354	0.829120	-99.121094	-132.910156
7511.220359	0.826496	9.091457	0.016700
7512.226937	1.573783	264.062500	181.445312
7512.228939	0.727089	264.062500	181.445312
7512.230938	0.831230	264.062500	181.445312
7512.232938	0.828472	9.113196	0.013995
7513.295965	0.414669	-98.242187	-136.035156
7513.297966	0.722476	-98.242187	-136.035156
7513.299968	0.830363	-98.242187	-136.035156
7513.301967	0.827680	9.104486	0.018366
7514.299934	0.319908	307.421875	177.929687
7514.301940	0.351405	307.421875	177.929687
7514.303938	0.827075	307.421875	177.929687
7514.307938	0.826721	9.093930	0.013544
7515.377938	0.604107	-101.757812	-139.257812
7515.379939	0.820572	-101.757812	-139.257812
7515.381939	0.827832	-101.757812	-139.257812
7515.383940	0.825987	9.085856	0.263789
7516.374904	0.378783	313.183594	179.980469
7516.376906	0.692245	313.183594	179.980469
7516.378906	0.697440	313.183594	179.980469
7516.380907	0.828730	9.116033	0.011427
7517.454937	0.412838	-103.222656	-141.796875
7517.456939	0.720982	-103.222656	-141.796875
7517.458939	0.830373	-103.222656	-141.796875
7517.460939	0.827926	9.107187	0.020343
7518.451829	0.578500	277.050781	188.671875
7518.453831	0.814069	277.050781	188.671875
7518.455833	0.828261	277.050781	188.671875
7518.457832	0.826291	9.089197	0.125947
7519.529422	1.996797	-99.609375	-145.996094
7519.536684	0.830213	-99.609375	-145.996094
7519.538687	0.830204	9.132241	0.021057
7520.526699	0.376035	296.484375	185.058594
7520.528699	0.689753	296.484375	185.058594
7520.530701	0.829915	296.484375	185.058594
7520.532701	0.827784	9.105619	0.010895
7521.610755	0.562383	-105.664062	-146.191406
7521.612757	0.808513	-105.664062	-146.191406
7521.616757	0.825943	-105.664062	-146.191406
7521.618759	0.824474	9.069213	0.021203
7522.604806	0.682699	277.050781	187.890625
7522.606806	0.830010	277.050781	187.890625
7522.608808	0.828195	9.110148	0.009924
7523.687418	0.561727	-102.636719	-147.656250
7523.689421	0.809024	-102.636719	-147.656250
7523.691419	0.828921	-102.636719	-147.656250
7523.693420	0.826963	9.096598	0.044764
7524.681536	0.610599	288.671875	183.496094
7524.683538	0.822019	288.671875	183.496094
7524.685538	0.827842	288.671875	183.496094
7524.687540	0.826168	9.087850	0.292411
7525.762140	0.331329	-101.269531	-146.582031
7525.764142	0.648692	-101.269531	-146.582031
7525.766142	0.828608	-101.269531	-146.582031
7525.768142	0.829144	9.120588	0.021351
7526.760195	0.522449	288.085937	181.445312
7526.762198	0.533948	288.085937	181.445312
7526.764197	0.828811	288.085937	181.445312
7526.766197	0.826586	9.092450	0.011818
7527.838826	0.579299	-103.027344	-142.871094
7527.840826	0.814670	-103.027344	-142.871094
7527.842829	0.828824	-103.027344	-142.871094
7527.844828	0.826831	9.095144	0.139828
7528.839826	0.504402	316.992187	172.753906
7528.841828	0.782630	316.992187	172.753906
7528.843827	0.828429	316.992187	172.753906
7528.845830	0.826249	9.088737	0.013504
7529.909846	0.332750	-98.437500	-141.308594
7529.911847	0.650108	-98.437500	-141.308594
7529.913849	0.828172	-98.437500	-141.308594
7529.915851	0.828453	9.112984	0.020129
7530.917872	0.313830	289.453125	173.535156
7530.919895	0.632140	289.453125	173.535156
7530.921897	0.825578	289.453125	173.535156
7530.923897	0.827389	289.453125	173.535156
7530.925895	0.825474	9.080211	0.015286
7531.983959	0.495246	-95.410156	-139.453125
7531.987962	0.828563	-95.410156	-139.453125
7531.989960	0.826228	-95.410156	-139.453125
7531.991961	0.824755	9.072306	0.018198
7533.003992	0.820441	266.015625	173.437500
7533.005994	0.827841	266.015625	173.437500
7533.007994	0.826023	9.086255	0.260020
7534.056607	0.507119	-99.511719	-137.988281
7534.058606	0.784053	-99.511719	-137.988281
7534.060607	0.828496	-99.511719	-137.988281
7534.062607	0.826270	9.088967	0.016516
7535.086608	0.811606	254.785156	173.242187
7535.088608	0.828037	254.785156	173.242187
7535.090610	0.826070	9.086769	0.095366
7536.127209	0.517057	-91.992187	-141.503906
7536.129210	0.789554	-91.992187	-141.503906
7536.131212	0.829040	-91.992187	-141.503906
7536.133210	0.826816	9.094975	0.017056
7537.165271	0.473162	221.777344	179.785156
7537.167273	0.764345	221.777344	179.785156
7537.169272	0.829208	221.777344	179.785156
7537.171272	0.826744	9.094187	0.019274
7538.200249	0.509741	-93.945312	-144.726562
7538.202253	0.785684	-93.945312	-144.726562
7538.204251	0.828913	-93.945312	-144.726562
7538.206250	0.826605	9.092654	0.015913
7539.245236	0.429260	231.738281	181.542969
7539.247237	0.733754	231.738281	181.542969
7539.249237	0.829666	231.738281	181.542969
7539.251235	0.827000	9.096996	0.019771
7540.273258	0.499234	-88.671875	-152.148437
7540.275261	0.779634	-88.671875	-152.148437
7540.277261	0.828222	-88.671875	-152.148437
7540.279261	0.825993	9.085918	0.015751
7541.323335	0.412075	221.484375	188.769531
7541.325336	0.720621	221.484375	188.769531
7541.327336	0.831855	221.484375	188.769531
7541.329334	0.829106	9.120171	0.019253
7542.349287	0.556760	-85.839844	-159.375000
7542.351290	0.566074	-85.839844	-159.375000
7542.353288	0.828351	-85.839844	-159.375000
7542.355288	0.826354	9.089897	0.023664
7543.399329	0.300136	219.433594	194.628906
7543.401331	0.619083	219.433594	194.628906
7543.403330	0.823746	219.433594	194.628906
7543.405331	0.828002	219.433594	194.628906
7543.407330	0.826184	9.088028	0.019592
7544.429427	0.803039	-82.812500	-166.796875
7544.431428	0.828368	-82.812500	-166.796875
7544.433429	0.826324	9.089561	0.015623
7545.475914	0.371885	224.707031	198.144531
7545.477916	0.686175	224.707031	198.144531
7545.479915	0.829825	224.707031	198.144531
7545.481916	0.827864	9.106505	0.018513
7546.505873	0.505642	-84.960937	-172.167969
7546.509873	0.830475	-84.960937	-172.167969
7546.511876	0.830388	-84.960937	-172.167969
7546.513876	0.826728	9.094009	0.017859
7547.551929	0.591146	237.402344	198.925781
7547.553930	0.817469	237.402344	198.925781
7547.555931	0.827908	237.402344	198.925781
7547.559929	0.824514	9.069655	0.018332
7548.584025	0.495898	-83.398437	-176.953125
7548.586026	0.777742	-83.398437	-176.953125
7548.588026	0.828508	-83.398437	-176.953125
7548.590025	0.826146	9.087611	0.019518
7549.628090	0.671537	193.945312	209.667969
7549.630092	0.828972	193.945312	209.667969
7549.632090	0.827756	9.105318	0.016037
7550.664075	0.622951	-83.300781	-179.980469
7550.666072	0.824410	-83.300781	-179.980469
7550.668074	0.828061	-83.300781	-179.980469
7550.670075	0.826283	9.089117	0.020618
7551.702110	0.333166	206.738281	208.496094
7551.704110	0.650424	206.738281	208.496094
7551.706111	0.827741	206.738281	208.496094
7551.708110	0.828001	9.108012	0.016899
7552.742683	0.797352	-83.496094	-181.347656
7552.744684	0.799580	-83.496094	-181.347656
7552.746686	0.826349	9.089845	0.020687
7553.779099	0.545569	197.753906	210.253906
7553.781101	0.802099	197.753906	210.253906
7553.783102	0.828076	197.753906	210.253906
7553.785100	0.826022	9.086246	0.015588
7554.817147	0.420780	-85.449219	-182.128906
7554.819147	0.727917	-85.449219	-182.128906
7554.821147	0.833675	-85.449219	-182.128906
7554.823149	0.831076	9.141840	0.021634
7555.859195	0.828878	205.273437	208.105469
7555.861198	0.826916	9.096074	0.018457
7556.895799	0.779758	-83.105469	-182.226562
7556.897803	0.828849	-83.105469	-182.226562
7556.899800	0.826688	9.093567	0.020499
7557.936217	0.782641	241.796875	199.316406
7557.938218	0.828706	241.796875	199.316406
7557.940218	0.826486	9.091342	0.016292
7558.968288	0.313312	-87.304687	-180.957031
7558.970312	0.631594	-87.304687	-180.957031
7558.972315	0.826292	-87.304687	-180.957031
7558.974316	0.827999	-87.304687	-180.957031
7558.976315	0.826360	9.089959	0.021026
7560.012353	0.410012	239.843750	196.972656
7560.014354	0.718855	239.843750	196.972656
7560.016354	0.831196	239.843750	196.972656
7560.018354	0.828462	9.113081	0.018693
7561.044808	0.611717	-85.546875	-178.710937
7561.048810	0.827865	-85.546875	-178.710937
7561.050811	0.826066	-85.546875	-178.710937
7561.052812	0.824743	9.072173	0.020998
7562.092860	0.688873	192.578125	201.074219
7562.094863	0.829121	192.578125	201.074219
7562.096862	0.827205	9.099257	0.018840
7563.118890	0.527118	-88.085937	-175.000000
7563.120892	0.794290	-88.085937	-175.000000
7563.122893	0.828636	-88.085937	-175.000000
7563.124891	0.826480	9.091280	0.019598
7564.169496	0.362066	206.152344	193.554687
7564.171496	0.677224	206.152344	193.554687
7564.173497	0.829008	206.152344	193.554687
7564.175497	0.827539	9.102934	0.019647
7565.197548	0.820322	-85.058594	-169.726562
7565.199551	0.827690	-85.058594	-169.726562
7565.201550	0.827571	9.103279	0.018631
7566.245509	0.338435	208.203125	187.304687
7566.247510	0.655289	208.203125	187.304687
7566.249512	0.828036	208.203125	187.304687
7566.251513	0.827821	9.106027	0.020630
7567.273527	0.777882	-87.011719	-162.890625
7567.275529	0.828746	-87.011719	-162.890625
7567.277530	0.826325	9.089579	0.018490
7568.323559	0.556069	214.843750	180.664062
7568.325561	0.806442	214.843750	180.664062
7568.327561	0.828108	214.843750	180.664062
7568.329561	0.826134	9.087469	0.021408
7569.353606	0.828825	-89.746094	-156.542969
7569.355606	0.826358	-89.746094	-156.542969
7569.357607	0.824791	9.072696	0.018594
7570.397595	0.544743	239.453125	171.679687
7570.399595	0.802149	239.453125	171.679687
7570.401594	0.828663	239.453125	171.679687
7570.403596	0.826582	9.092405	0.021556
7571.429638	0.274594	-92.871094	-151.855469
7571.431640	0.595066	-92.871094	-151.855469
7571.433637	0.818707	-92.871094	-151.855469
7571.435638	0.828102	-92.871094	-151.855469
7571.437638	0.826279	9.089065	0.019550
7572.471724	0.705390	220.800781	170.996094
7572.473726	0.829753	220.800781	170.996094
7572.475724	0.827392	9.101313	0.022029
7573.514246	0.774436	-94.531250	-149.414062
7573.516246	0.828661	-94.531250	-149.414062
7573.518247	0.826245	9.088693	0.019994
7574.542336	0.560465	252.148437	165.917969
7574.544338	0.808133	252.148437	165.917969
7574.546339	0.828356	252.148437	165.917969
7574.548336	0.826397	9.090367	0.044780
7575.594402	0.467510	-97.460937	-148.730469
7575.596407	0.760561	-97.460937	-148.730469
7575.598406	0.828956	-97.460937	-148.730469
7575.600406	0.826485	9.091333	0.020461
7576.614474	0.412759	226.953125	170.605469
7576.616477	0.720922	226.953125	170.605469
7576.618483	0.830508	226.953125	170.605469
7576.620484	0.827749	9.105238	0.019673
7577.676480	0.512477	-97.070312	-150.585937
7577.678482	0.787013	-97.070312	-150.585937
7577.680482	0.828721	-97.070312	-150.585937
7577.682482	0.828553	9.114082	0.022430
7578.686511	0.489508	258.789062	168.847656
7578.688514	0.774111	258.789062	168.847656
7578.690513	0.828671	258.789062	168.847656
7578.692515	0.826269	9.088958	0.020021
7579.756500	0.553909	-99.414062	-152.734375
7579.758502	0.805788	-99.414062	-152.734375
7579.762501	0.826461	-99.414062	-152.734375
7579.764502	0.825211	9.077322	0.024352
7580.760534	0.474928	238.867187	174.121094
7580.762533	0.765258	238.867187	174.121094
7580.764536	0.828555	238.867187	174.121094
7580.766534	0.826174	9.087913	0.018535
7581.836588	0.607453	-102.636719	-154.785156
7581.838590	0.821289	-102.636719	-154.785156
7581.840592	0.827927	-102.636719	-154.785156
7581.842590	0.826088	9.086965	0.289052
7582.835164	0.395994	292.578125	168.261719
7582.837164	0.707068	292.578125	168.261719
7582.839166	0.830140	292.578125	168.261719
7582.841167	0.827796	9.105761	0.017666
7583.913188	0.437347	-105.273437	-156.445312
7583.915190	0.739727	-105.273437	-156.445312
7583.917190	0.829774	-105.273437	-156.445312
7583.919192	0.827102	9.098122	0.025534
7584.912241	0.460688	297.949219	168.261719
7584.914242	0.755948	297.949219	168.261719
7584.916241	0.828766	297.949219	168.261719
7584.918242	0.826208	9.088293	0.016712
7585.990213	0.330012	-106.054687	-157.910156
7585.992213	0.647333	-106.054687	-157.910156
7585.996213	0.828162	-106.054687	-157.910156
7585.998214	0.826522	9.091741	0.025640
7586.990228	0.736891	242.480469	175.781250
7586.994228	0.827566	242.480469	175.781250
7586.996230	0.826046	9.086503	0.015828
7588.070318	0.766741	-100.781250	-159.960937
7588.072320	0.828795	-100.781250	-159.960937
7588.074320	0.826385	9.090235	0.026056
7589.066284	0.567867	248.144531	174.023437
7589.068291	0.810403	248.144531	174.023437
7589.072294	0.825834	248.144531	174.023437
7589.074296	0.824378	9.068158	0.081530
7590.144349	0.455224	-99.121094	-159.375000
7590.146352	0.752518	-99.121094	-159.375000
7590.148353	0.829495	-99.121094	-159.375000
7590.150352	0.826998	9.096978	0.025976
7591.144424	0.395845	258.300781	170.312500
7591.146426	0.706883	258.300781	170.312500
7591.148427	0.829930	258.300781	170.312500
7591.150427	0.827546	9.103004	0.018873
7592.219038	0.544510	-103.417969	-156.054687
7592.221038	0.801725	-103.417969	-156.054687
7592.223039	0.828097	-103.417969	-156.054687
7592.225038	0.826065	9.086716	0.025340
7593.223567	0.463185	264.550781	166.308594
7593.225568	0.757777	264.550781	166.308594
7593.229566	0.826623	264.550781	166.308594
7593.231567	0.825031	9.075336	0.019382
7594.291597	0.382138	-99.902344	-155.566406
7594.295597	0.830400	-99.902344	-155.566406
7594.297599	0.828248	-99.902344	-155.566406
7594.299603	0.826577	9.092352	0.025481
7595.305591	0.732044	240.722656	165.820312
7595.307593	0.829456	240.722656	165.820312
7595.309594	0.826895	9.095844	0.021191
7596.366174	0.534780	-98.437500	-154.687500
7596.368177	0.797603	-98.437500	-154.687500
7596.370175	0.828321	-98.437500	-154.687500
7596.372176	0.826194	9.088134	0.023822
7597.386243	0.643381	238.476562	163.085937
7597.390243	0.828571	238.476562	163.085937
7597.392243	0.826789	9.094683	0.465421
7598.440873	0.766121	-100.878906	-154.785156
7598.442875	0.829004	-100.878906	-154.785156
7598.444876	0.826550	9.092051	0.023139
7599.469750	0.789162	220.996094	163.964844
7599.471751	0.828637	220.996094	163.964844
7599.473751	0.826420	9.090615	0.022901
7600.510250	0.528477	-94.628906	-158.496094
7600.512250	0.794875	-94.628906	-158.496094
7600.514252	0.828586	-94.628906	-158.496094
7600.516250	0.826530	9.091829	0.022092
7601.550265	0.807105	209.863281	166.406250
7601.552265	0.809045	209.863281	166.406250
7601.554264	0.826197	9.088169	0.032884
7602.582838	0.284264	-96.972656	-161.523437
7602.584839	0.604030	-96.972656	-161.523437
7602.586843	0.623952	-96.972656	-161.523437
7602.588844	0.828350	-96.972656	-161.523437
7602.590843	0.826444	9.090881	0.021939
7603.626836	0.287865	216.406250	168.554687
7603.628838	0.607491	216.406250	168.554687
7603.630840	0.821752	216.406250	168.554687
7603.632838	0.828308	216.406250	168.554687
7603.634838	0.826499	9.091493	0.025731
7604.656855	0.435264	-90.722656	-167.871094
7604.658857	0.738278	-90.722656	-167.871094
7604.660857	0.829924	-90.722656	-167.871094
7604.662857	0.827261	9.099868	0.022506
7605.706925	0.344952	223.730469	172.460937
7605.708927	0.661431	223.730469	172.460937
7605.710927	0.829235	223.730469	172.460937
7605.712926	0.828505	9.113551	0.024147
7606.732895	0.577806	-88.378906	-174.511719
7606.736897	0.828249	-88.378906	-174.511719
7606.738897	0.826187	-88.378906	-174.511719
7606.740899	0.824850	9.073352	0.132676
7607.784983	0.487083	197.851562	180.175781
7607.786985	0.772958	197.851562	180.175781
7607.788986	0.829105	197.851562	180.175781
7607.790984	0.826738	9.094116	0.024017
7608.809021	0.410302	-86.523437	-181.738281
7608.811025	0.719023	-86.523437	-181.738281
7608.813024	0.830948	-86.523437	-181.738281
7608.815027	0.828285	9.111132	0.022661
7609.862991	0.693943	186.621094	185.742187
7609.864993	0.829188	186.621094	185.742187
7609.866993	0.827010	9.097112	0.024149
7610.885619	0.314797	-88.867187	-187.207031
7610.887650	0.633004	-88.867187	-187.207031
7610.889646	0.827508	-88.867187	-187.207031
7610.891647	0.829198	9.121181	0.024187
7611.939695	0.758857	198.925781	187.207031
7611.941696	0.828675	198.925781	187.207031
7611.943696	0.826163	9.087797	0.022917
7612.965742	0.618868	-85.351562	-192.089844
7612.967745	0.823404	-85.351562	-192.089844
7612.969744	0.827739	-85.351562	-192.089844
7612.971744	0.825937	9.085307	0.341788
7614.013714	0.443280	201.464844	189.355469
7614.015715	0.453633	201.464844	189.355469
7614.017716	0.829646	201.464844	189.355469
7614.019716	0.827158	9.098733	0.023493
7615.041822	0.444746	-86.816406	-195.117187
7615.043824	0.745024	-86.816406	-195.117187
7615.045824	0.829251	-86.816406	-195.117187
7615.047824	0.826639	9.093025	0.025402
7616.089804	0.512513	202.343750	190.234375
7616.093804	0.828358	202.343750	190.234375
7616.095806	0.826094	202.343750	190.234375
7616.097806	0.824527	9.069798	0.022520
7617.119857	0.497826	-88.183594	-196.582031
7617.121861	0.779002	-88.183594	-196.582031
7617.123858	0.828639	-88.183594	-196.582031
7617.125861	0.826264	9.088905	0.025222
7618.165903	0.340049	211.132812	189.160156
7618.167905	0.656916	211.132812	189.160156
7618.169904	0.828737	211.132812	189.160156
7618.171903	0.828381	9.112195	0.021964
7619.197986	0.564638	-87.890625	-197.460937
7619.199990	0.809096	-87.890625	-197.460937
7619.201987	0.827564	-87.890625	-197.460937
7619.203988	0.825542	9.080964	0.062767
7620.241994	0.328123	205.078125	188.867187
7620.243997	0.645525	205.078125	188.867187
7620.246000	0.828100	205.078125	188.867187
7620.248003	0.828814	9.116955	0.024083
7621.274075	0.555532	-87.988281	-197.167969
7621.276075	0.565268	-87.988281	-197.167969
7621.278076	0.828728	-87.988281	-197.167969
7621.280075	0.826797	9.094763	0.025175
7622.320133	0.399274	161.035156	193.457031
7622.322136	0.709808	161.035156	193.457031
7622.324135	0.830593	161.035156	193.457031
7622.328133	0.826505	9.091555	0.024033
7623.352147	0.800383	-90.332031	-194.921875
7623.354147	0.828459	-90.332031	-194.921875
7623.356147	0.826354	9.089897	0.024212
7624.400699	0.754595	181.933594	187.402344
7624.402700	0.829230	181.933594	187.402344
7624.406698	0.825205	9.077260	0.024687
7625.425289	0.461988	-88.476562	-192.382812
7625.427292	0.756911	-88.476562	-192.382812
7625.429292	0.828762	-88.476562	-192.382812
7625.431292	0.828649	9.115137	0.024732
7626.477358	0.527312	183.691406	183.203125
7626.479358	0.794049	183.691406	183.203125
7626.481359	0.827995	183.691406	183.203125
7626.483358	0.825735	9.083082	0.024966
7627.501412	0.458469	-88.378906	-188.085937
7627.503414	0.754737	-88.378906	-188.085937
7627.505413	0.829565	-88.378906	-188.085937
7627.507416	0.827067	9.097732	0.024145
7628.553472	0.359912	194.140625	176.464844
7628.555473	0.675297	194.140625	176.464844
7628.557474	0.829131	194.140625	176.464844
7628.559476	0.827783	9.105610	0.026077
7629.579540	0.685515	-93.554687	-182.324219
7629.581543	0.829239	-93.554687	-182.324219
7629.587541	0.824484	9.069320	0.023888
7630.632509	0.725251	176.074219	173.535156
7630.634510	0.829683	176.074219	173.535156
7630.636516	0.827133	9.098468	0.026533
7631.655092	0.430018	-93.359375	-176.660156
7631.657094	0.734078	-93.359375	-176.660156
7631.661093	0.826998	-93.359375	-176.660156
7631.663096	0.825644	9.082081	0.024422
7632.705151	0.339580	205.566406	164.941406
7632.707153	0.656343	205.566406	164.941406
7632.709152	0.828568	205.566406	164.941406
7632.711152	0.828278	9.111061	0.027905
7633.735171	0.401671	-94.628906	-171.289062
7633.737170	0.711733	-94.628906	-171.289062
7633.739172	0.829906	-94.628906	-171.289062
7633.743169	0.825847	9.084314	0.024077
7634.781210	0.800278	231.933594	157.910156
7634.783211	0.826373	231.933594	157.910156
7634.785210	0.827048	9.097528	0.027241
7635.815692	0.361642	-99.511719	-166.992187
7635.817694	0.676843	-99.511719	-166.992187
7635.819695	0.828992	-99.511719	-166.992187
7635.821694	0.827475	9.102225	0.025855
7636.853770	0.484598	230.664062	155.761719
7636.855772	0.771233	230.664062	155.761719
7636.857771	0.828400	230.664062	155.761719
7636.859774	0.826143	9.087575	0.025852
7637.897851	0.337535	-95.800781	-166.308594
7637.899854	0.654562	-95.800781	-166.308594
7637.901853	0.828919	-95.800781	-166.308594
7637.903852	0.828770	9.116467	0.025328
7638.925803	0.559174	225.195312	155.761719
7638.927806	0.807489	225.195312	155.761719
7638.929804	0.828172	225.195312	155.761719
7638.931804	0.826162	9.087779	0.048164
7639.977848	0.294704	-100.390625	-165.136719
7639.979849	0.613864	-100.390625	-165.136719
7639.981849	0.822400	-100.390625	-165.136719
7639.989847	0.824388	-100.390625	-165.136719
7639.991849	0.822573	9.048298	0.027308
7640.997846	0.311442	244.433594	154.882812
7640.999848	0.629669	244.433594	154.882812
7641.001848	0.826644	244.433594	154.882812
7641.003848	0.829308	244.433594	154.882812
7641.005848	0.827509	9.102597	0.026214
7642.061918	0.782807	-103.515625	-165.722656
7642.063919	0.828325	-103.515625	-165.722656
7642.065918	0.826139	9.087531	0.027707
7643.072490	0.479924	210.058594	160.351562
7643.074492	0.768356	210.058594	160.351562
7643.076490	0.828529	210.058594	160.351562
7643.078493	0.826204	9.088249	0.024404
7644.139484	0.394257	-101.562500	-168.652344
7644.141486	0.705602	-101.562500	-168.652344
7644.143486	0.830939	-101.562500	-168.652344
7644.145485	0.828327	9.111602	0.029173
7645.145544	0.390186	261.523437	156.152344
7645.147545	0.702023	261.523437	156.152344
7645.149546	0.830311	261.523437	156.152344
7645.151548	0.827933	9.107267	0.024129
7646.219609	0.535123	-103.125000	-170.410156
7646.221612	0.797849	-103.125000	-170.410156
7646.225610	0.826458	-103.125000	-170.410156
7646.227611	0.825162	9.076781	0.028962
7647.221680	0.388403	226.953125	161.718750
7647.223681	0.700571	226.953125	161.718750
7647.225680	0.830343	226.953125	161.718750
7647.227681	0.828114	9.109253	0.022603
7648.296271	0.286837	-101.855469	-172.558594
7648.298273	0.606434	-101.855469	-172.558594
7648.300274	0.821117	-101.855469	-172.558594
7648.302273	0.827970	-101.855469	-172.558594
7648.304274	0.826208	9.088284	0.029454
7649.298228	0.449882	215.625000	163.085937
7649.300229	0.748671	215.625000	163.085937
7649.302229	0.829368	215.625000	163.085937
7649.304230	0.826755	9.094302	0.021996
7650.376314	0.733158	-101.074219	-173.828125
7650.378315	0.830021	-101.074219	-173.828125
7650.380315	0.827340	9.100744	0.030638
7651.376737	0.658344	214.062500	162.792969
7651.380738	0.827075	214.062500	162.792969
7651.382740	0.825371	9.079077	0.023552
7652.450814	0.481423	-103.027344	-172.558594
7652.452817	0.769410	-103.027344	-172.558594
7652.454816	0.828895	-103.027344	-172.558594
7652.456818	0.826456	9.091014	0.030904
7653.452924	0.339298	222.753906	160.253906
7653.454927	0.656088	222.753906	160.253906
7653.456930	0.828894	222.753906	160.253906
7653.458931	0.828510	9.113613	0.023671
7654.529546	0.827912	-100.292969	-173.046875
7654.531548	0.827862	9.106479	0.515150
7655.533556	0.773666	270.703125	152.539062
7655.535559	0.828747	270.703125	152.539062
7655.537560	0.826395	9.090341	0.024273
7656.600000	0.391509	-101.074219	-171.777344
7656.602004	0.703198	-101.074219	-171.777344
7656.604003	0.830103	-101.074219	-171.777344
7656.606004	0.827713	9.104839	0.030280
7657.614017	0.740427	225.585937	154.882812
7657.616019	0.829210	225.585937	154.882812
7657.618019	0.826701	9.093708	0.025733
7658.676075	0.642018	-99.316406	-171.777344
7658.680074	0.827869	-99.316406	-171.777344
7658.682077	0.826303	9.089331	0.029156
7659.692094	0.489653	206.250000	154.394531
7659.696095	0.828916	206.250000	154.394531
7659.698099	0.826593	206.250000	154.394531
7659.700102	0.825103	9.076134	0.026327
7660.750698	0.801607	-97.460937	-172.363281
7660.752700	0.827877	-97.460937	-172.363281
7660.754700	0.825812	9.083933	0.027024
7661.773146	0.289175	230.468750	150.195312
7661.775148	0.608628	230.468750	150.195312
7661.777148	0.821212	230.468750	150.195312
7661.779149	0.827525	230.468750	150.195312
7661.783148	0.824235	9.066589	0.027407
7662.823186	0.682609	-96.484375	-173.242187
7662.825187	0.828721	-96.484375	-173.242187
7662.827187	0.827009	9.097094	0.027267
7663.853230	0.345606	189.941406	154.296875
7663.855233	0.661910	189.941406	154.296875
7663.857231	0.829334	189.941406	154.296875
7663.859232	0.828659	9.115252	0.029291
7664.895258	0.604699	-94.140625	-176.660156
7664.897260	0.820773	-94.140625	-176.660156
7664.899261	0.827964	-94.140625	-176.660156
7664.901261	0.826188	9.088072	0.027047
7665.937283	0.761608	158.496094	159.667969
7665.941284	0.826600	158.496094	159.667969
7665.945286	0.823856	9.062415	0.027892
7666.967373	1.857626	-95.410156	-180.664062
7666.971372	0.829400	-95.410156	-180.664062
7666.973373	0.826823	-95.410156	-180.664062
7666.975375	0.825224	9.077464	0.027254
7668.013426	0.377690	193.945312	158.691406
7668.015428	0.691210	193.945312	158.691406
7668.017427	0.830046	193.945312	158.691406
7668.019428	0.827965	9.107614	0.029617
7669.041504	0.374421	-91.699219	-186.914062
7669.043506	0.688268	-91.699219	-186.914062
7669.045505	0.829165	-91.699219	-186.914062
7669.047507	0.827323	9.100550	0.026969
7670.093601	0.446889	171.289062	164.550781
7670.095605	0.746438	171.289062	164.550781
7670.099602	0.826578	171.289062	164.550781
7670.101607	0.825014	9.075159	0.028667
7671.117645	1.648068	-94.042969	-192.773437
7671.119647	0.685730	-94.042969	-192.773437
7671.121647	0.830140	-94.042969	-192.773437
7671.123648	0.828227	9.110494	0.029103
7672.170670	0.510224	154.394531	170.507812
7672.172672	0.785797	154.394531	170.507812
7672.174672	0.828598	154.394531	170.507812
7672.176673	0.826395	9.090341	0.029082
7673.195252	0.598838	-90.527344	-198.632812
7673.197252	0.819416	-90.527344	-198.632812
7673.199253	0.828019	-90.527344	-198.632812
7673.201255	0.826210	9.088311	0.247548
7674.247298	0.422002	181.250000	170.605469
7674.249301	0.728131	181.250000	170.605469
7674.251300	0.829996	181.250000	170.605469
7674.253300	0.829950	9.129450	0.029003
7675.271316	0.425117	-88.574219	-203.710937
7675.273318	0.730462	-88.574219	-203.710937
7675.275319	0.829627	-88.574219	-203.710937
7675.277319	0.827003	9.097032	0.028097
7676.323388	0.327487	169.042969	174.902344
7676.325391	0.644957	169.042969	174.902344
7676.327390	0.826768	169.042969	174.902344
7676.329390	0.827491	9.102402	0.030252
7677.347409	0.245452	-88.476562	-207.421875
7677.349411	0.567499	-88.476562	-207.421875
7677.351411	0.810708	-88.476562	-207.421875
7677.353412	0.828487	-88.476562	-207.421875
7677.355412	0.826513	9.091643	0.030693
7678.399401	0.301778	162.402344	177.343750
7678.401401	0.620563	162.402344	177.343750
7678.403402	0.823452	162.402344	177.343750
7678.405403	0.827455	162.402344	177.343750
7678.407403	0.825624	9.081868	0.029046
7679.425446	0.386382	-88.574219	-210.351562
7679.427448	0.698728	-88.574219	-210.351562
7679.429449	0.830325	-88.574219	-210.351562
7679.431447	0.827946	9.107409	0.029839
7680.477483	0.448582	168.164062	176.953125
7680.479486	0.747587	168.164062	176.953125
7680.481485	0.828884	168.164062	176.953125
7680.483486	0.826275	9.089029	0.028160
7681.505552	0.684767	-87.988281	-211.328125
7681.507555	0.828866	-87.988281	-211.328125
7681.509555	0.827141	9.098547	0.030438
7682.557561	0.816750	160.546875	178.027344
7682.563561	0.824323	160.546875	178.027344
7682.565564	0.823344	9.056787	0.186763
7683.580123	0.353923	-89.062500	-211.425781
7683.582125	0.669655	-89.062500	-211.425781
7683.584127	0.831384	-89.062500	-211.425781
7683.586125	0.830180	9.131976	0.030287
7684.634130	0.776008	155.957031	176.953125
7684.636132	0.828543	155.957031	176.953125
7684.638133	0.826411	9.090518	0.027923
7685.656723	0.342265	-89.843750	-210.449219
7685.658725	0.658825	-89.843750	-210.449219
7685.660724	0.828119	-89.843750	-210.449219
7685.662725	0.828473	9.113205	0.030239
7686.708775	0.407938	180.078125	171.582031
7686.710777	0.717159	180.078125	171.582031
7686.712777	0.831758	180.078125	171.582031
7686.714778	0.828957	9.118532	0.029390
7687.732750	0.319426	-89.257812	-208.105469
7687.734760	0.637304	-89.257812	-208.105469
7687.736761	0.825947	-89.257812	-208.105469
7687.738762	0.827283	9.100116	0.029775
7688.788794	0.798343	153.027344	171.484375
7688.790797	0.828128	153.027344	171.484375
7688.792797	0.826134	9.087469	0.029120
7689.809340	0.305439	-89.550781	-204.492187
7689.811341	0.624154	-89.550781	-204.492187
7689.813340	0.631354	-89.550781	-204.492187
7689.815342	0.828066	-89.550781	-204.492187
7689.817341	0.826316	9.089481	0.029390
7690.863338	0.438803	158.203125	166.699219
7690.865341	0.740627	158.203125	166.699219
7690.867341	0.828868	158.203125	166.699219
7690.869342	0.826254	9.088799	0.030089
7691.891428	0.827952	-89.160156	-199.902344
7691.893430	0.825914	-89.160156	-199.902344
7691.895430	0.824323	9.067555	0.028358
7692.939505	0.357498	173.242187	160.742187
7692.941507	0.673149	173.242187	160.742187
7692.943508	0.830816	173.242187	160.742187
7692.945506	0.829337	9.122705	0.031011
7693.967474	0.816503	-92.675781	-194.824219
7693.969477	0.827847	-92.675781	-194.824219
7693.971476	0.825918	9.085094	0.183693
7695.015464	0.407801	164.160156	157.519531
7695.019465	0.830289	164.160156	157.519531
7695.021465	0.827822	164.160156	157.519531
7695.023467	0.826255	9.088807	0.031069
7696.045458	0.545653	-93.359375	-189.941406
7696.047460	0.802591	-93.359375	-189.941406
7696.049458	0.828700	-93.359375	-189.941406
7696.051460	0.826718	9.093894	0.028921
7697.089495	0.394543	198.828125	150.292969
7697.091497	0.705771	198.828125	150.292969
7697.093497	0.830517	198.828125	150.292969
7697.095495	0.828046	9.108508	0.032615
7698.123963	0.349063	-97.265625	-185.351562
7698.125965	0.665276	-97.265625	-185.351562
7698.127964	0.829559	-97.265625	-185.351562
7698.129968	0.828601	9.114614	0.029565
7699.166009	0.690802	207.421875	146.777344
7699.168012	0.828945	207.421875	146.777344
7699.170011	0.827033	9.097360	0.716125
7700.208062	0.807744	-95.703125	-183.593750
7700.210065	0.828327	-95.703125	-183.593750
7700.212065	0.826342	9.089765	0.051796
7701.238557	0.527235	195.019531	146.777344
7701.240559	0.794000	195.019531	146.777344
7701.242559	0.828158	195.019531	146.777344
7701.244558	0.825933	9.085262	0.031177
7702.286672	0.534309	-103.125000	-180.566406
7702.288676	0.797147	-103.125000	-180.566406
7702.290676	0.828040	-103.125000	-180.566406
7702.292675	0.825871	9.084580	0.030877
7703.309681	0.292127	209.375000	145.214844
7703.311682	0.611577	209.375000	145.214844
7703.313682	0.822587	209.375000	145.214844
7703.315683	0.828402	209.375000	145.214844
7703.317684	0.826527	9.091794	0.031253
7704.367736	0.578375	-102.929687	-182.031250
7704.369738	0.813864	-102.929687	-182.031250
7704.371739	0.827966	-102.929687	-182.031250
7704.373737	0.825969	9.085661	0.152302
7705.385815	0.692754	176.171875	149.218750
7705.387817	0.829064	176.171875	149.218750
7705.389816	0.826977	9.096747	0.730307
7706.446801	0.392213	-100.976562	-183.789062
7706.448799	0.703704	-100.976562	-183.789062
7706.450799	0.829735	-100.976562	-183.789062
7706.452798	0.827439	9.101826	0.032443
7707.460851	0.793308	209.765625	147.167969
7707.462856	0.828017	209.765625	147.167969
7707.464855	0.825906	9.084970	0.028734
7708.526906	2.467805	-103.320312	-185.449219
7708.530906	0.827972	-103.320312	-185.449219
7708.532907	0.825867	-103.320312	-185.449219
7708.534908	0.824375	9.068123	0.033217
7709.534907	0.589922	223.535156	146.875000
7709.536909	0.816798	223.535156	146.875000
7709.538908	0.827597	223.535156	146.875000
7709.540909	0.825611	9.081726	0.195004
7710.606974	0.785327	-102.929687	-186.914062
7710.608974	0.828853	-102.929687	-186.914062
7710.610976	0.828760	9.116361	0.034385
7711.611032	0.585417	244.726562	145.703125
7711.613034	0.815813	244.726562	145.703125
7711.617031	0.825964	244.726562	145.703125
7711.619033	0.824574	9.070312	0.177742
7712.685077	0.720401	-103.710937	-187.304687
7712.687079	0.724752	-103.710937	-187.304687
7712.691077	0.825490	9.080388	0.034599
7713.687095	0.488843	180.859375	151.953125
7713.689098	0.773568	180.859375	151.953125
7713.691098	0.828262	180.859375	151.953125
7713.693098	0.825898	9.084872	0.028195
7714.760070	0.460613	-107.421875	-185.742187
7714.762071	0.755878	-107.421875	-185.742187
7714.764072	0.828751	-107.421875	-185.742187
7714.766072	0.826374	9.090110	0.035129
7715.764074	0.457966	225.195312	146.972656
7715.766075	0.753989	225.195312	146.972656
7715.768076	0.828554	225.195312	146.972656
7715.770076	0.826113	9.087248	0.028671
7716.838103	0.792223	-105.175781	-186.523437
7716.840106	0.828182	-105.175781	-186.523437
7716.842105	0.826021	9.086228	0.034413
7717.842585	0.342565	199.121094	147.460937
7717.844588	0.659101	199.121094	147.460937
7717.846587	0.828116	199.121094	147.460937
7717.848587	0.827579	9.103368	0.028770
7718.910701	0.438686	-102.441406	-187.500000
7718.912703	0.450228	-102.441406	-187.500000
7718.914704	0.830338	-102.441406	-187.500000
7718.916705	0.827631	9.103944	0.034480
7719.922731	0.568481	196.582031	146.093750
7719.924738	0.810702	196.582031	146.093750
7719.926743	0.827948	196.582031	146.093750
7719.928744	0.826028	9.086308	0.093928
7720.986760	0.502313	-100.390625	-187.109375
7720.988761	0.781830	-100.390625	-187.109375
7720.990761	0.829435	-100.390625	-187.109375
7720.992762	0.827121	9.098334	0.033473
7722.000834	0.391420	173.828125	146.386719
7722.002838	0.703046	173.828125	146.386719
7722.004836	0.830008	173.828125	146.386719
7722.006837	0.827654	9.104192	0.031145
7723.060889	0.468287	-103.710937	-185.644531
7723.062891	0.830114	-103.710937	-185.644531
7723.064895	0.827439	9.101826	0.033094
7724.081493	0.287335	185.449219	144.042969
7724.083495	0.606883	185.449219	144.042969
7724.085494	0.820952	185.449219	144.042969
7724.087495	0.827609	185.449219	144.042969
7724.089494	0.825826	9.084084	0.031987
7725.131587	0.286646	-100.292969	-187.500000
7725.133592	0.606315	-100.292969	-187.500000
7725.135595	0.820713	-100.292969	-187.500000
7725.137593	0.827607	-100.292969	-187.500000
7725.139593	0.825572	9.081292	0.033313
7726.163635	0.510154	175.292969	144.433594
7726.165638	0.785495	175.292969	144.433594
7726.167638	0.828241	175.292969	144.433594
7726.169638	0.826014	9.086158	0.032380
7727.207703	0.685492	-102.148437	-188.964844
7727.209704	0.828679	-102.148437	-188.964844
7727.211704	0.826943	9.096376	0.031373
