time (s)	coil I (A)	last det (V)	int current (uC)
4262.919488	0.356157	-147.753906	-284.082031
4262.921490	0.365664	-147.753906	-284.082031
4262.923488	0.364477	4.009244	0.348411
4263.964085	0.313541	-465.039062	129.003906
4263.966086	0.366319	-465.039062	129.003906
4263.968086	0.364869	4.013561	0.339331
4264.996642	0.355815	-146.386719	-289.355469
4264.998646	0.366503	-146.386719	-289.355469
4265.000643	0.365268	4.017947	0.324793
4266.040625	0.300047	-434.960937	133.593750
4266.042629	0.366882	-434.960937	133.593750
4266.046625	0.364598	4.010582	0.356525
4267.070628	0.284102	-141.210937	-288.964844
4267.072630	0.367131	-141.210937	-288.964844
4267.074630	0.365500	4.020500	0.334414
4268.120650	0.302020	-439.941406	132.128906
4268.122651	0.366177	-439.941406	132.128906
4268.124653	0.364795	4.012745	0.345231
4269.148612	0.286401	-144.531250	-279.394531
4269.150615	0.366489	-144.531250	-279.394531
4269.152613	0.364890	4.013791	0.353275
4270.194603	0.312763	-450.976562	124.902344
4270.196605	0.366493	-450.976562	124.902344
4270.198606	0.365158	4.016742	0.335235
4271.228606	0.366844	-150.097656	-263.867187
4271.230608	0.365896	4.024860	0.366813
4272.272654	0.354944	-409.179687	121.777344
4272.274655	0.366303	-409.179687	121.777344
4272.276656	0.365130	4.016432	0.306236
4273.308726	0.343934	-161.035156	-243.066406
4273.310725	0.366218	-161.035156	-243.066406
4273.312726	0.365037	4.015404	0.384173
4274.343200	0.366432	-397.265625	119.140625
4274.347201	0.364323	4.007552	0.303270
4275.395674	0.368492	-163.281250	-227.636719
4275.397674	0.367187	4.039057	0.447178
4276.405720	0.368169	-427.539062	122.363281
4276.407719	0.367381	4.041193	0.303852
4277.485814	0.366377	-163.476562	-230.273437
4277.487815	0.365218	4.017398	0.364146
4278.476400	0.278802	-440.429687	133.300781
4278.478400	0.366238	-440.429687	133.300781
4278.480400	0.364742	4.012160	0.346450
4279.565016	0.352725	-151.367187	-253.515625
4279.567016	0.366162	-151.367187	-253.515625
4279.569015	0.364949	4.014438	0.332994
4280.559574	0.367069	-438.378906	144.335937
4280.561577	0.365910	4.025011	0.378245
4281.629629	0.256150	-140.527344	-283.691406
4281.631632	0.366598	-140.527344	-283.691406
4281.633632	0.365286	4.018142	0.305378
4282.646211	0.366623	-378.027344	154.980469
4282.648213	0.365229	4.017522	0.388990
4283.696250	0.279457	-133.300781	-292.578125
4283.698253	0.366457	-133.300781	-292.578125
4283.700252	0.364972	4.014695	0.322936
4284.736225	0.366547	-388.183594	141.894531
4284.738227	0.365050	4.015554	0.352023
4285.766157	0.362652	-148.339844	-268.359375
4285.768159	0.365983	4.025808	0.349577
4286.814214	0.366439	-429.687500	121.289062
4286.816216	0.366432	4.030754	0.309742
4287.852177	0.365839	-153.320312	-230.761719
4287.854177	0.364424	4.008668	0.651554
4288.874121	0.366167	-483.496094	116.406250
4288.876124	0.365556	4.021111	0.302806
4289.946187	0.367829	-154.785156	-222.851562
4289.948189	0.366580	4.032384	0.372764
4290.942139	0.364846	-448.730469	131.542969
4290.944140	0.365793	4.023726	0.341429
4292.029106	0.366787	-152.050781	-242.480469
4292.031108	0.365833	4.024160	0.339687
4293.021096	0.366442	-403.906250	147.167969
4293.023096	0.365289	4.018178	0.359326
4294.099578	0.307736	-139.648437	-268.652344
4294.101579	0.367304	-139.648437	-268.652344
4294.103578	0.365787	4.023655	0.308598
4295.099575	0.253961	-368.652344	157.324219
4295.101578	0.367751	-368.652344	157.324219
4295.103579	0.366252	4.028777	0.388441
4296.169618	0.348500	-134.472656	-285.839844
4296.171622	0.365726	-134.472656	-285.839844
4296.175619	0.363827	4.002101	0.297688
4297.191643	0.365301	-433.789062	151.367187
4297.193645	0.364364	4.008004	0.380617
4298.236641	0.317561	-133.984375	-289.843750
4298.238643	0.365846	-133.984375	-289.843750
4298.240644	0.364481	4.009289	0.310047
4299.276667	0.367334	-433.203125	145.507812
4299.278670	0.365945	4.025392	0.349703
4300.309216	0.366600	-144.726562	-283.593750
4300.311219	0.365481	4.020287	0.333732
4301.355813	0.365452	-436.035156	137.500000
4301.357816	0.365389	4.019277	0.350850
4302.386372	0.366756	-138.769531	-269.824219
4302.388374	0.365209	4.017301	0.357257
4303.432440	0.365270	-393.359375	136.718750
4303.434443	0.365460	4.020057	0.330597
4304.462917	0.363289	-147.070312	-262.207031
4304.464920	0.365591	4.021501	0.365298
4305.508914	0.362704	-407.031250	132.617187
4305.510915	0.365306	4.018364	0.325305
4306.538963	0.336979	-150.683594	-260.351562
4306.540964	0.365852	-150.683594	-260.351562
4306.542966	0.364579	4.010370	0.359161
4307.587040	0.367637	-385.351562	134.765625
4307.589041	0.366591	4.032499	0.331741
4308.615010	0.358320	-149.121094	-262.304687
4308.617012	0.366308	-149.121094	-262.304687
4308.619014	0.365217	4.017389	0.360469
4309.665047	0.366091	-385.156250	137.695312
4309.667047	0.365979	4.025773	0.335495
4310.691606	0.265551	-142.187500	-268.066406
4310.693606	0.366622	-142.187500	-268.066406
4310.695608	0.365224	4.017469	0.361914
4311.741605	0.311703	-398.535156	142.480469
4311.743609	0.366332	-398.535156	142.480469
4311.745611	0.364900	4.013897	0.339518
4312.771608	0.362755	-141.015625	-277.734375
4312.773609	0.366054	4.026597	0.338855
4313.815765	0.367888	-382.714844	150.683594
4313.817768	0.366393	4.030328	0.474074
4314.855851	0.366110	-131.152344	-282.031250
4314.857852	0.364694	4.011637	0.612560
4315.885805	0.365675	-395.605469	156.640625
4315.887806	0.365975	4.025720	0.373641
4316.937857	0.348294	-135.937500	-283.300781
4316.939860	0.366006	-135.937500	-283.300781
4316.941860	0.364734	4.012072	0.305822
4317.955895	0.365929	-411.523437	156.933594
4317.957897	0.364631	4.010946	0.390604
4319.024511	0.358603	-143.847656	-268.457031
4319.026512	0.366049	-143.847656	-268.457031
4319.028512	0.364825	4.013073	0.320211
4320.023488	0.289149	-368.652344	156.640625
4320.025492	0.366930	-368.652344	156.640625
4320.027491	0.365466	4.020128	0.394719
4321.109467	0.367803	-147.753906	-244.238281
4321.111467	0.366824	4.035069	0.327861
4322.097502	0.275784	-388.378906	145.410156
4322.099503	0.367294	-388.378906	145.410156
4322.101504	0.365709	4.022795	0.362075
4323.185459	0.366011	-157.910156	-223.046875
4323.187460	0.365685	4.022538	0.345801
4324.181482	0.292567	-438.574219	129.492187
4324.183483	0.366028	-438.574219	129.492187
4324.185483	0.364632	4.010955	0.319451
4325.249555	0.341607	-163.671875	-214.843750
4325.251557	0.365635	-163.671875	-214.843750
4325.255555	0.363627	3.999895	0.391362
4326.271655	0.313257	-419.042969	123.437500
4326.273656	0.365944	-419.042969	123.437500
4326.275656	0.364553	4.010087	0.294624
4327.315680	0.367248	-163.085937	-230.371094
4327.317679	0.367154	4.038694	0.383151
4328.360267	0.366606	-428.125000	128.320312
4328.362270	0.365151	4.016662	0.323046
4329.386788	0.365554	-150.781250	-262.304687
4329.388791	0.365326	4.018586	0.366910
4330.435340	0.322556	-394.335937	147.753906
4330.437342	0.366216	-394.335937	147.753906
4330.439342	0.364931	4.014243	0.347150
4331.469363	0.301117	-137.500000	-280.566406
4331.471366	0.366760	-137.500000	-280.566406
4331.473367	0.365263	4.017894	0.327153
4332.503365	0.365683	-376.757812	160.644531
4332.505367	0.365255	4.017806	0.364441
4333.557438	0.256338	-138.964844	-276.757812
4333.559440	0.368154	-138.964844	-276.757812
4333.561440	0.366779	4.034564	0.303017
4334.569963	0.366146	-393.750000	159.472656
4334.571967	0.364726	4.011983	0.399323
4335.646538	0.369263	-137.597656	-257.226562
4335.648539	0.368060	4.048656	0.310330
4336.642564	0.365543	-385.742187	154.882812
4336.644566	0.365531	4.020845	0.365111
4337.725123	0.254114	-147.851562	-240.039062
4337.727126	0.366989	-147.851562	-240.039062
4337.729127	0.365643	4.022069	0.332679
4338.717196	0.367807	-372.753906	148.828125
4338.719198	0.366604	4.032641	0.354077
4339.801226	0.247630	-151.855469	-224.609375
4339.803230	0.367740	-151.855469	-224.609375
4339.805228	0.366386	4.030248	0.370607
4340.795709	0.366728	-385.156250	141.699219
4340.797711	0.366588	4.032473	0.333989
4341.879744	0.366001	-158.203125	-216.210937
4341.881746	0.364883	4.013711	0.359930
4342.879793	0.365242	-428.906250	133.398437
4342.881795	0.364263	4.006896	0.312820
4343.945377	2.097638	-166.308594	-212.109375
4343.950721	0.365995	-166.308594	-212.109375
4343.952723	0.364721	4.011930	0.385911
4344.957239	0.366380	-396.386719	133.105469
4344.959241	0.364859	-396.386719	133.105469
4344.961241	0.364004	4.004043	0.316522
4346.027307	0.364499	-170.019531	-209.179687
4346.029309	0.363757	4.001322	0.401075
4347.033320	0.260365	-428.515625	128.710937
4347.035322	0.366802	-428.515625	128.710937
4347.037322	0.365340	4.018736	0.320493
4348.100256	0.348797	-161.132812	-209.570312
4348.102254	0.365390	-161.132812	-209.570312
4348.104258	0.364171	4.005877	0.383940
4349.114233	0.367326	-409.960937	130.664062
4349.116234	0.366242	4.028662	0.306698
4350.178787	0.290243	-163.085937	-208.691406
4350.180788	0.295779	-163.085937	-208.691406
4350.182787	0.365344	4.018780	0.382745
4351.190736	0.367302	-395.996094	133.593750
4351.192738	0.366119	4.027306	0.309649
4352.257229	0.315752	-163.085937	-209.472656
4352.259231	0.366589	-163.085937	-209.472656
4352.261231	0.365216	4.017371	0.379089
4353.263237	0.308779	-368.066406	138.378906
4353.265239	0.366298	-368.066406	138.378906
4353.267239	0.364901	4.013915	0.317128
4354.341207	0.365697	-161.914062	-212.402344
4354.343208	0.364716	4.011877	0.362026
4355.335787	0.346299	-348.046875	144.042969
4355.337790	0.365506	-348.046875	144.042969
4355.339787	0.364362	4.007977	0.331811
4356.419807	0.366666	-152.539062	-218.261719
4356.421810	0.365209	4.017301	0.357200
4357.413833	0.366036	-373.925781	148.925781
4357.415833	0.364876	4.013631	0.339709
4358.497789	0.367782	-151.855469	-229.882812
4358.499792	0.366679	4.033474	0.365023
4359.493808	0.365347	-368.750000	156.542969
4359.495809	0.364670	4.011372	0.359764
4360.574398	0.366845	-151.953125	-245.996094
4360.576400	0.365741	4.023149	0.329696
4361.570406	0.363424	-336.230469	165.527344
4361.572410	0.365194	4.017132	0.378190
4362.642410	0.293412	-144.921875	-263.476562
4362.644414	0.367177	-144.921875	-263.476562
4362.646413	0.365587	4.021457	0.323234
4363.656484	0.366582	-398.632812	162.304687
4363.658484	0.365310	4.018408	0.379144
4364.711514	0.305870	-133.593750	-271.484375
4364.713516	0.366654	-133.593750	-271.484375
4364.715514	0.365141	4.016556	0.311415
4365.741527	0.289144	-372.558594	161.425781
4365.743527	0.366692	-372.558594	161.425781
4365.745527	0.365224	4.017469	0.366783
4366.781538	0.366433	-144.824219	-269.335937
4366.783540	0.364984	-144.824219	-269.335937
4366.785541	0.364138	4.005522	0.335402
4367.828143	0.366249	-362.597656	149.707031
4367.830144	0.365241	4.017646	0.342371
4368.854155	0.309172	-149.218750	-245.214844
4368.856155	0.367249	-149.218750	-245.214844
4368.858157	0.365751	4.023256	0.364207
4369.900182	0.349134	-356.640625	136.621094
4369.902184	0.366014	-356.640625	136.621094
4369.904185	0.364816	4.012976	0.323154
4370.936228	1.997795	-163.281250	-219.042969
4370.938230	0.368231	-163.281250	-219.042969
4370.940228	0.367011	4.037126	0.390782
4371.972783	0.366088	-423.144531	127.734375
4371.974785	0.365055	4.015607	0.313346
4373.025770	0.362340	-169.921875	-205.859375
4373.027770	0.364073	4.004805	0.391979
4374.037784	0.267260	-329.003906	139.355469
4374.039782	0.366770	-329.003906	139.355469
4374.041783	0.365389	4.019277	0.311455
4375.109781	0.365304	-164.257812	-208.593750
4375.111782	0.366750	4.034254	0.366611
4376.107841	0.366389	-399.609375	143.261719
4376.109844	0.365890	4.024789	0.342183
4377.194812	0.367168	-161.035156	-220.117187
4377.196814	0.366123	4.027350	0.355155
4378.187361	0.365045	-363.769531	155.273437
4378.189362	0.364131	4.005443	0.458172
4379.269891	0.366612	-151.171875	-233.398437
4379.271894	0.365064	-151.171875	-233.398437
4379.273893	0.364150	4.005647	0.346722
4380.263975	0.368329	-340.039062	163.769531
4380.265977	0.368359	4.051952	0.411065
4381.339521	1.984335	-141.992187	-244.921875
4381.344774	0.366204	-141.992187	-244.921875
4381.346776	0.364959	4.014553	0.325667
4382.342810	0.363985	-304.882812	170.898437
4382.344816	0.365096	4.016060	0.387387
4383.416853	0.298370	-141.601562	-254.101562
4383.418857	0.366426	-141.601562	-254.101562
4383.420855	0.364918	4.014101	0.312009
4384.424897	0.365679	-299.218750	173.828125
4384.426897	0.364702	4.011726	0.388266
4385.493378	0.366501	-138.574219	-258.593750
4385.495380	0.365734	4.023070	0.302883
4386.503453	0.354955	-329.687500	172.949219
4386.505458	0.365341	-329.687500	172.949219
4386.507459	0.364154	4.005691	0.370621
4387.567537	0.367123	-135.351562	-260.253906
4387.569540	0.367213	4.039341	0.309731
4388.581988	0.366215	-379.199219	168.066406
4388.583991	0.364799	-379.199219	168.066406
4388.585990	0.364044	4.004486	0.393775
4389.643967	1.980718	-140.234375	-260.644531
4389.645968	0.366169	-140.234375	-260.644531
4389.647969	0.364965	4.014615	0.310938
4390.657969	0.367417	-370.996094	169.140625
4390.659972	0.366470	4.031170	0.375785
4391.724971	0.367648	-140.527344	-258.007812
4391.726972	0.366327	4.029593	0.307746
4392.733527	0.366272	-364.843750	170.214844
4392.737528	0.363953	4.003484	0.386008
4393.806070	0.365065	-140.917969	-252.832031
4393.808071	0.364101	4.005106	0.303145
4394.806690	0.282678	-319.042969	173.925781
4394.808694	0.366543	-319.042969	173.925781
4394.810693	0.365045	4.015492	0.378985
4395.882759	0.365710	-142.675781	-244.921875
4395.884761	0.365709	4.022795	0.318070
4396.882819	0.366406	-285.839844	173.046875
4396.884819	0.364996	4.014961	0.376806
4397.962817	0.301703	-142.968750	-232.324219
4397.964820	0.366132	-142.968750	-232.324219
4397.966817	0.364693	4.011620	0.339680
4398.956826	0.355254	-338.671875	163.574219
4398.958826	0.366209	-338.671875	163.574219
4398.960826	0.365035	4.015386	0.363508
4400.042888	0.368237	-149.023437	-219.628906
4400.044890	0.366803	4.034830	0.341794
4401.034949	0.368134	-336.621094	156.250000
4401.036951	0.366746	4.034210	0.477419
4402.117101	0.362707	-155.957031	-207.617187
4402.121103	0.365857	-155.957031	-207.617187
4402.123104	0.365187	4.017061	0.352592
4403.117134	0.366203	-362.988281	145.605469
4403.119135	0.365284	4.018125	0.316873
4404.187670	0.366320	-166.894531	-199.902344
4404.189672	0.364965	4.014615	0.727338
4405.200266	0.367486	-392.871094	135.546875
4405.202267	0.366157	4.027731	0.309739
4406.254819	0.316872	-158.984375	-200.390625
4406.256820	0.365682	-158.984375	-200.390625
4406.258819	0.364373	4.008101	0.389644
4407.288850	0.364743	-379.492187	133.886719
4407.290850	0.363902	4.002926	0.355697
4408.325416	0.366779	-154.882812	-214.746094
4408.327418	0.366658	4.033235	0.380516
4409.369950	0.357367	-316.406250	145.410156
4409.371951	0.365559	-316.406250	145.410156
4409.373952	0.364406	4.008465	0.312265
4410.397966	0.355046	-150.390625	-237.011719
4410.399967	0.366246	-150.390625	-237.011719
4410.401969	0.364968	4.014651	0.373944
4411.446024	0.265855	-324.609375	158.203125
4411.448026	0.368010	-324.609375	158.203125
4411.450024	0.366494	4.031435	0.351766
4412.478017	0.301600	-144.140625	-254.687500
4412.480017	0.366271	-144.140625	-254.687500
4412.482017	0.364973	4.014704	0.348402
4413.519989	0.364543	-324.316406	169.824219
4413.521989	0.366132	4.027448	0.362528
4414.562035	0.366985	-132.421875	-258.496094
4414.564037	0.365401	4.019410	0.323826
4415.590098	0.352401	-340.136719	174.902344
4415.592100	0.366182	-340.136719	174.902344
4415.594102	0.364943	4.014376	0.375102
4416.646164	0.366812	-141.113281	-258.593750
4416.648167	0.365340	4.018745	0.317093
4417.660717	0.324443	-290.722656	180.371094
4417.662719	0.365965	-290.722656	180.371094
4417.664720	0.364657	4.011230	0.390362
4418.727163	0.320964	-139.355469	-248.925781
4418.729164	0.366138	-139.355469	-248.925781
4418.731164	0.364845	4.013295	0.318259
4419.735253	0.365435	-290.722656	178.027344
4419.737256	0.364283	4.007109	0.378343
4420.809311	0.365004	-147.851562	-239.843750
4420.811312	0.367102	4.038118	0.317654
4421.807810	0.315414	-307.910156	173.046875
4421.809812	0.365657	-307.910156	173.046875
4421.813810	0.363616	3.999779	0.374438
4422.887846	0.360662	-153.027344	-232.812500
4422.889849	0.366251	-153.027344	-232.812500
4422.891849	0.365132	4.016450	0.323815
4423.884814	0.367160	-280.761719	172.656250
4423.886817	0.366044	4.026482	0.394115
4424.967302	0.364204	-145.507812	-225.292969
4424.969305	0.365503	4.020535	0.324302
4425.959383	0.291598	-342.773437	166.308594
4425.961386	0.296214	-342.773437	166.308594
4425.963386	0.364812	4.012931	0.365641
4427.043956	0.347576	-150.000000	-223.339844
4427.045958	0.365623	-150.000000	-223.339844
4427.047959	0.364459	4.009050	0.335202
4428.040027	0.366770	-351.562500	165.429687
4428.042029	0.365691	4.022600	0.357540
4429.120617	0.307087	-152.246094	-223.242187
4429.122620	0.366096	-152.246094	-223.242187
4429.124621	0.364725	4.011974	0.337552
4430.116726	0.367283	-336.718750	167.675781
4430.118728	0.365931	4.025241	0.363660
4431.197299	0.347719	-148.339844	-225.292969
4431.199300	0.366078	-148.339844	-225.292969
4431.201300	0.364830	4.013135	0.328591
4432.193255	0.352241	-346.972656	168.554687
4432.195258	0.365436	-346.972656	168.554687
4432.197257	0.364221	4.006435	0.374531
4433.275838	0.366079	-146.093750	-229.980469
4433.277841	0.365014	-146.093750	-229.980469
4433.281839	0.363720	4.000923	0.325607
4434.271879	0.367355	-329.980469	173.242187
4434.273881	0.369340	4.062737	0.365063
4435.348462	0.293014	-141.894531	-236.132812
4435.350464	0.366638	-141.894531	-236.132812
4435.352462	0.365279	4.018072	0.322203
4436.352523	0.361663	-297.753906	179.492187
4436.354525	0.365245	4.017690	0.365483
4437.422642	0.367806	-140.234375	-245.214844
4437.424643	0.366492	4.031409	0.363657
4438.438626	0.364002	-344.140625	177.539062
4438.440627	0.363329	3.996616	0.376657
4439.497138	0.365933	-136.132812	-251.953125
4439.499139	0.365104	4.016149	0.322496
4440.519184	0.365490	-279.394531	183.300781
4440.521186	0.364507	4.009573	0.428201
4441.565136	0.337114	-138.183594	-254.882812
4441.567138	0.366033	-138.183594	-254.882812
4441.569140	0.364798	4.012781	0.319960
4442.599178	0.264864	-338.085937	172.265625
4442.601180	0.366049	-338.085937	172.265625
4442.603182	0.364731	4.012036	0.361413
4443.637166	0.366322	-148.242187	-251.855469
4443.639167	0.365471	4.020181	0.344187
4444.681769	0.342581	-354.785156	160.742187
4444.683771	0.365993	-354.785156	160.742187
4444.685771	0.364687	4.011558	0.341838
4445.712314	0.366613	-151.367187	-235.449219
4445.714317	0.365123	4.016352	0.650077
4446.758891	0.291828	-344.140625	150.000000
4446.762889	0.364880	-344.140625	150.000000
4446.764892	0.363985	4.003839	0.328648
4447.790918	0.366488	-157.421875	-214.355469
4447.792921	0.365011	-157.421875	-214.355469
4447.794920	0.364157	4.005726	0.384566
4448.833010	0.367276	-296.875000	145.898437
4448.835011	0.365827	4.024098	0.657028
4449.872987	0.363375	-167.968750	-197.851562
4449.874989	0.365496	4.020455	0.398463
4450.903581	0.366796	-289.062500	145.605469
4450.905584	0.365574	4.021315	0.307889
4451.957541	0.366712	-168.847656	-190.625000
4451.961542	0.364378	4.008163	0.391841
4452.972072	0.342206	-283.398437	150.292969
4452.974073	0.365752	-283.398437	150.292969
4452.976073	0.364495	4.009439	0.325706
4454.040569	0.361829	-159.082031	-190.429687
4454.042571	0.365478	4.020260	0.388198
4455.046614	0.365707	-300.976562	155.957031
4455.048615	0.364608	4.010689	0.322061
4456.124608	0.366556	-167.285156	-196.972656
4456.126610	0.365177	4.016946	0.359489
4457.119529	0.355794	-292.968750	163.574219
4457.123529	0.366298	-292.968750	163.574219
4457.125529	0.364321	4.007534	0.333574
4458.201572	0.337643	-162.890625	-204.980469
4458.203572	0.365663	-162.890625	-204.980469
4458.205572	0.364497	4.009466	0.360179
4459.196571	0.366343	-347.558594	164.941406
4459.198572	0.364867	4.013534	0.352576
4460.279170	0.331142	-156.152344	-211.328125
4460.281172	0.366095	-156.152344	-211.328125
4460.283171	0.364811	4.012922	0.338922
4461.273114	0.362150	-337.402344	169.238281
4461.275115	0.362868	3.991546	0.360765
4462.355681	0.317840	-153.906250	-215.332031
4462.357683	0.321454	-153.906250	-215.332031
4462.359684	0.364752	4.012267	0.337376
4463.351687	0.366269	-328.808594	171.679687
4463.353687	0.364933	4.014260	0.358239
4464.432217	0.240322	-151.074219	-216.796875
4464.434220	0.367058	-151.074219	-216.796875
4464.436219	0.365725	4.022972	0.341524
4465.430285	0.368340	-315.917969	173.730469
4465.432286	0.367185	4.039031	0.354750
4466.510878	0.362643	-152.148437	-216.308594
4466.512880	0.365664	4.022299	0.333840
4467.506958	0.364759	-343.847656	170.507812
4467.508960	0.363827	4.002093	0.369237
4468.587901	0.330690	-153.808594	-213.183594
4468.589902	0.365734	-153.808594	-213.183594
4468.591902	0.364503	4.009537	0.337193
4469.581898	0.363421	-324.218750	170.410156
4469.585897	0.364652	4.011177	0.349044
4470.666409	0.366962	-155.566406	-207.812500
4470.668411	0.365539	4.020925	0.462585
4471.662454	0.364776	-322.949219	167.187500
4471.664457	0.364044	4.004486	0.344461
4472.743023	0.364941	-155.957031	-200.097656
4472.745026	0.366859	4.035450	0.345297
4473.737067	0.358458	-325.683594	161.914062
4473.739067	0.366334	-325.683594	161.914062
4473.741068	0.365187	4.017061	0.333320
4474.817646	0.346618	-156.542969	-191.699219
4474.819648	0.349062	-156.542969	-191.699219
4474.821650	0.364930	4.014234	0.366523
4475.818126	0.365492	-279.199219	158.984375
4475.820129	0.367028	4.037312	0.317864
4476.888167	0.306627	-167.578125	-187.304687
4476.890168	0.366391	-167.578125	-187.304687
4476.892169	0.364990	4.014890	0.382398
4477.902143	0.365443	-346.679687	148.437500
4477.904147	0.365361	4.018967	0.316231
4478.962729	0.365584	-158.007812	-184.472656
4478.964732	0.364548	4.010025	0.379474
4479.984731	0.366777	-279.101562	149.218750
4479.986732	0.365505	4.020553	0.308729
4481.030719	0.363222	-159.765625	-190.917969
4481.032720	0.365622	4.021847	0.385062
4482.066733	0.269998	-378.613281	141.992187
4482.068736	0.366559	-378.613281	141.992187
4482.070741	0.365080	4.015882	0.325588
4483.102841	0.365473	-156.054687	-204.687500
4483.104843	0.367293	4.040218	0.379610
4484.148952	0.258245	-311.718750	155.859375
4484.150952	0.366968	-311.718750	155.859375
4484.152952	0.365535	4.020889	0.322251
4485.179001	0.366678	-148.437500	-221.484375
4485.181002	0.365260	4.017859	0.369625
4486.227018	0.364507	-331.835937	164.550781
4486.229020	0.366916	4.036079	0.330295
4487.257080	0.339910	-148.046875	-237.597656
4487.259080	0.366156	-148.046875	-237.597656
4487.261081	0.364907	4.013977	0.344617
4488.301628	0.363906	-289.746094	179.101562
4488.303629	0.366301	4.029309	0.344079
4489.339696	0.367222	-134.570312	-240.332031
4489.343695	0.365048	4.015528	0.328406
4490.376136	0.364985	-335.937500	180.957031
4490.378138	0.364088	4.004973	0.364450
4491.420765	0.364564	-138.867187	-244.824219
4491.422767	0.366615	4.032765	0.311530
4492.446830	0.368885	-287.988281	189.941406
4492.448831	0.367602	4.043622	0.436353
4493.504938	0.365046	-141.406250	-242.382812
4493.506941	0.364150	4.005647	0.630916
4494.521541	0.365733	-257.128906	193.164062
4494.523542	0.364600	4.010601	0.366006
4495.583573	0.366835	-145.312500	-237.890625
4495.587573	0.364695	4.011646	0.316617
4496.596137	0.365958	-332.812500	184.570312
4496.598138	0.364878	4.013658	0.367761
4497.664191	0.369312	-144.238281	-233.789062
4497.666194	0.368101	4.049107	0.309203
4498.668718	0.252529	-317.480469	185.156250
4498.670718	0.367786	-317.480469	185.156250
4498.672719	0.366460	4.031064	0.374364
4499.741248	0.367562	-146.191406	-232.324219
4499.743249	0.366310	4.029407	0.317057
4500.745857	0.307637	-267.089844	190.136719
4500.747860	0.366306	-267.089844	190.136719
4500.749860	0.364952	4.014473	0.368082
4501.817905	0.367732	-144.140625	-230.859375
4501.819908	0.366547	4.032021	0.348838
4502.825912	0.362507	-283.496094	189.453125
4502.827914	0.364940	-283.496094	189.453125
4502.829913	0.364257	4.006825	0.365687
4503.894024	0.366976	-138.476562	-229.980469
4503.896026	0.365715	-138.476562	-229.980469
4503.898026	0.364834	4.013171	0.332123
4504.902134	0.339240	-283.105469	190.722656
4504.904134	0.366082	-283.105469	190.722656
4504.906134	0.366024	4.026269	0.369142
4505.968230	0.346380	-138.476562	-233.105469
4505.970232	0.366279	-138.476562	-233.105469
4505.972229	0.365122	4.016343	0.316540
4506.984265	0.366379	-310.839844	189.941406
4506.986266	0.365305	4.018355	0.365886
4508.042748	0.339808	-136.132812	-235.058594
4508.044751	0.365825	-136.132812	-235.058594
4508.048747	0.363910	4.003015	0.316884
4509.064762	0.366840	-325.488281	188.476562
4509.068761	0.364811	4.012922	0.364216
4510.119270	0.364909	-144.628906	-241.894531
4510.121273	0.364015	4.004167	0.318678
4511.144274	0.356886	-288.183594	190.332031
4511.146277	0.365425	-288.183594	190.332031
4511.148280	0.364395	4.008349	0.355444
4512.188341	0.335052	-148.437500	-241.601562
4512.190343	0.366056	-148.437500	-241.601562
4512.192343	0.364805	4.012860	0.329610
4513.228402	0.366982	-249.023437	188.183594
4513.230402	0.365810	4.023911	0.341110
4514.262435	0.359960	-144.238281	-233.593750
4514.264436	0.366364	-144.238281	-233.593750
4514.266436	0.365199	4.017194	0.338428
4515.306494	0.339738	-273.339844	177.148437
4515.310494	0.364470	-273.339844	177.148437
4515.312496	0.363881	4.002696	0.336195
4516.340556	0.365616	-146.386719	-219.335937
4516.342559	0.364826	4.013091	0.350514
4517.384574	0.358425	-271.582031	166.699219
4517.386576	0.365634	-271.582031	166.699219
4517.388576	0.364520	4.009723	0.317012
4518.414626	0.355461	-156.542969	-205.175781
4518.416628	0.357050	-156.542969	-205.175781
4518.418626	0.365112	4.016228	0.371699
4519.460635	0.355033	-275.195312	157.617187
4519.462637	0.365702	-275.195312	157.617187
4519.464637	0.364582	4.010406	0.306869
4520.494635	0.298938	-169.824219	-192.089844
4520.496635	0.366262	-169.824219	-192.089844
4520.498634	0.364894	4.013835	0.395231
4521.532673	0.366381	-267.675781	154.003906
4521.534675	0.364920	4.014119	0.313384
4522.580718	0.366210	-164.160156	-181.640625
4522.582721	0.365174	4.016919	0.375143
4523.602729	0.324159	-274.804687	154.199219
4523.604730	0.365829	-274.804687	154.199219
4523.606730	0.364540	4.009945	0.303812
4524.662824	0.366011	-171.484375	-178.906250
4524.664825	0.364680	4.011478	0.374638
4525.677365	0.367623	-340.820312	154.687500
4525.679365	0.366528	4.031808	0.308614
4526.745429	0.365552	-167.578125	-178.906250
4526.747431	0.364516	-167.578125	-178.906250
4526.749432	0.363803	4.001836	0.367416
4527.749517	0.368624	-250.488281	165.917969
4527.751517	0.367206	4.039261	0.584163
4528.823965	0.349189	-165.136719	-183.007812
4528.825966	0.365511	-165.136719	-183.007812
4528.829965	0.363580	3.999381	0.355537
4529.824009	0.354263	-327.050781	165.234375
4529.826009	0.365680	-327.050781	165.234375
4529.828016	0.364568	4.010246	0.326756
4530.905017	0.365868	-156.933594	-185.644531
4530.907020	0.364946	4.014402	0.363262
4531.901093	0.366587	-331.152344	168.457031
4531.903096	0.365131	4.016441	0.784384
4532.981124	0.366700	-159.375000	-189.257812
4532.985125	0.364984	4.014819	0.352064
4533.975171	0.247674	-288.769531	173.925781
4533.977173	0.367108	-288.769531	173.925781
4533.979173	0.365865	4.024514	0.339961
4535.059135	1.445028	-157.714844	-190.332031
4535.061138	0.365440	4.019844	0.346248
4536.055187	0.366273	-304.394531	173.144531
4536.057188	0.365034	4.015378	0.335440
4537.135761	0.365027	-157.519531	-190.039062
4537.137764	0.365400	4.019401	0.349746
4538.131860	0.366955	-319.726562	170.800781
4538.133861	0.365495	4.020447	0.336142
4539.212423	0.364659	-162.207031	-188.378906
4539.214424	0.365847	4.024319	0.348904
4540.208466	0.328227	-300.195312	170.214844
4540.210467	0.365962	-300.195312	170.214844
4540.212469	0.364691	4.011602	0.328346
4541.289052	0.366892	-160.058594	-183.593750
4541.291053	0.365487	4.020358	0.434383
4542.289015	0.316187	-243.359375	170.410156
4542.291016	0.364925	4.014172	0.334703
4543.363081	0.296931	-164.648437	-179.785156
4543.365084	0.365986	-164.648437	-179.785156
4543.367085	0.364558	4.010140	0.376091
4544.367105	0.361504	-245.410156	165.917969
4544.369105	0.365432	4.019755	0.322824
4545.437102	0.334277	-168.652344	-176.269531
4545.439104	0.366041	-168.652344	-176.269531
4545.441106	0.364862	4.013481	0.367664
4546.449068	0.349900	-303.125000	157.421875
4546.451069	0.366059	-303.125000	157.421875
4546.453072	0.365002	4.015023	0.298696
4547.511157	0.365662	-159.960937	-174.023437
4547.513159	0.364601	4.010610	0.375081
4548.531137	0.335679	-323.730469	152.441406
4548.533140	0.365908	-323.730469	152.441406
4548.535140	0.364739	4.012125	0.309757
4549.581714	0.366126	-171.191406	-179.492187
4549.583717	0.365381	4.019188	0.387234
4550.616306	0.366120	-334.667969	151.269531
4550.618308	0.364702	4.011726	0.305359
4551.654929	0.366180	-160.742187	-187.011719
4551.658929	0.364388	4.008270	0.384719
4552.696904	0.366866	-264.550781	161.328125
4552.698904	0.365601	4.021616	0.378462
4553.726849	0.330584	-162.792969	-202.441406
4553.728849	0.365979	-162.792969	-202.441406
4553.730851	0.364698	4.011682	0.386483
4554.773494	0.361792	-318.359375	164.550781
4554.775496	0.365639	4.022024	0.325507
4555.803561	0.334247	-154.785156	-215.136719
4555.805563	0.365903	-154.785156	-215.136719
4555.807562	0.364533	4.009865	0.359900
4556.851590	0.331833	-289.746094	177.050781
4556.853595	0.366054	-289.746094	177.050781
4556.855593	0.364751	4.012258	0.329399
4557.885610	0.367251	-148.632812	-225.488281
4557.887613	0.366168	4.027847	0.334459
4558.932146	0.365072	-267.578125	188.281250
4558.934148	0.364369	4.008057	0.516396
4559.962210	0.346967	-142.968750	-230.273437
4559.964212	0.366513	-142.968750	-230.273437
4559.968210	0.364482	4.009298	0.332522
4561.002240	0.366382	-307.617187	190.039062
4561.004242	0.364984	4.014819	0.349679
4562.042774	2.009006	-141.796875	-232.421875
4562.044776	0.367260	-141.796875	-232.421875
4562.046778	0.365821	4.024027	0.323982
4563.072810	0.269692	-290.039062	195.312500
4563.074809	0.366772	-290.039062	195.312500
4563.076810	0.365224	4.017469	0.363721
4564.124963	0.368209	-140.429687	-231.054687
4564.126964	0.368149	4.049639	0.503623
4565.148930	0.365754	-268.554687	199.121094
4565.150931	0.365888	4.024771	0.355164
