time (s)	coil I (A)	last det (V)	int current (uC)
6958.199016	0.356126	-95.410156	-198.437500
6958.201018	0.672621	-95.410156	-198.437500
6958.203016	0.831432	-95.410156	-198.437500
6958.207015	0.828240	9.110635	0.027270
6959.213624	0.522128	145.605469	201.074219
6959.215626	0.829322	145.605469	201.074219
6959.217626	0.829249	9.121740	0.031417
6960.280268	0.433969	-97.363281	-195.996094
6960.282269	0.738085	-97.363281	-195.996094
6960.284271	0.831382	-97.363281	-195.996094
6960.286268	0.828531	9.113843	0.028804
6961.286846	0.511802	163.769531	201.660156
6961.288847	0.787681	163.769531	201.660156
6961.290847	0.830375	163.769531	201.660156
6961.292846	0.827949	9.107436	0.030558
6962.360941	0.732396	-98.242187	-193.457031
6962.362942	0.831291	-98.242187	-193.457031
6962.364941	0.828480	9.113276	0.029049
6963.362897	0.495089	182.421875	202.050781
6963.364898	0.778594	182.421875	202.050781
6963.366897	0.781892	182.421875	202.050781
6963.368896	0.828153	9.109678	0.028169
6964.434929	0.315099	-99.218750	-192.578125
6964.436942	0.633956	-99.218750	-192.578125
6964.438945	0.828506	-99.218750	-192.578125
6964.440947	0.830279	-99.218750	-192.578125
6964.442946	0.828346	9.111805	0.032838
6965.438943	0.474261	181.054687	202.636719
6965.442943	0.830427	181.054687	202.636719
6965.444943	0.827906	181.054687	202.636719
6965.446943	0.826564	9.092201	0.029555
6966.512957	0.370430	-97.949219	-189.453125
6966.514960	0.685468	-97.949219	-189.453125
6966.516958	0.831764	-97.949219	-189.453125
6966.518959	0.829860	9.128457	0.029588
6967.516991	0.453210	138.574219	201.367187
6967.518992	0.751731	138.574219	201.367187
6967.520993	0.830806	138.574219	201.367187
6967.522992	0.828020	9.108225	0.029750
6968.591014	0.670097	-99.609375	-195.898437
6968.593015	0.830439	-99.609375	-195.898437
6968.595014	0.829190	9.121093	0.605355
6969.599044	0.814986	146.386719	204.101562
6969.601048	0.829229	146.386719	204.101562
6969.603045	0.827225	9.099478	0.135662
6970.661691	0.368648	-97.167969	-194.433594
6970.663692	0.683922	-97.167969	-194.433594
6970.665691	0.831304	-97.167969	-194.433594
6970.669689	0.827759	9.105353	0.028917
6971.677742	0.489352	141.796875	205.664062
6971.679743	0.775250	141.796875	205.664062
6971.681744	0.830793	141.796875	205.664062
6971.683744	0.828277	9.111043	0.030898
6972.735731	0.439718	-97.656250	-199.316406
6972.737733	0.742107	-97.656250	-199.316406
6972.739732	0.831003	-97.656250	-199.316406
6972.741733	0.828147	9.109616	0.028504
6973.755777	0.293681	131.640625	206.738281
6973.757780	0.613780	131.640625	206.738281
6973.759785	0.823655	131.640625	206.738281
6973.761783	0.828958	131.640625	206.738281
6973.765784	0.825956	9.085520	0.034827
6974.809851	0.830601	-95.703125	-198.144531
6974.811854	0.828004	9.108047	0.027540
6975.840427	0.345176	131.640625	205.468750
6975.842429	0.662327	131.640625	205.468750
6975.844428	0.830796	131.640625	205.468750
6975.846428	0.830308	9.133385	0.031806
6976.878537	0.305753	-95.117187	-191.113281
6976.880539	0.625002	-95.117187	-191.113281
6976.882540	0.826228	-95.117187	-191.113281
6976.884538	0.829794	-95.117187	-191.113281
6976.886539	0.827768	9.105451	0.028224
6977.926575	0.831226	100.390625	197.851562
6977.928576	0.828556	9.114118	0.032873
6978.955227	0.713975	-98.339844	-186.523437
6978.957230	0.831029	-98.339844	-186.523437
6978.959230	0.828458	9.113037	0.029639
6980.001772	0.397705	117.480469	191.894531
6980.003774	0.708996	117.480469	191.894531
6980.005772	0.831056	117.480469	191.894531
6980.007774	0.828502	9.113524	0.034799
6981.027817	0.311889	-98.925781	-170.898437
6981.029838	0.630783	-98.925781	-170.898437
6981.031837	0.827140	-98.925781	-170.898437
6981.033838	0.829285	-98.925781	-170.898437
6981.035838	0.827372	9.101090	0.032677
6982.077883	0.390938	144.628906	183.789062
6982.081883	0.831822	144.628906	183.789062
6982.083884	0.829343	144.628906	183.789062
6982.085888	0.827674	9.104414	0.031348
6983.107903	0.370505	-103.125000	-159.765625
6983.109904	0.685461	-103.125000	-159.765625
6983.111904	0.831789	-103.125000	-159.765625
6983.113904	0.829877	9.128653	0.034760
6984.155884	0.822714	168.164062	174.609375
6984.157887	0.829637	168.164062	174.609375
6984.161885	0.826441	9.090846	0.279642
6985.189963	0.414283	-108.398437	-154.589844
6985.191966	0.722826	-108.398437	-154.589844
6985.193965	0.831960	-108.398437	-154.589844
6985.195966	0.829127	9.120393	0.035199
6986.224000	0.541691	174.316406	169.433594
6986.226000	0.801767	174.316406	169.433594
6986.228000	0.830003	174.316406	169.433594
6986.230003	0.827795	9.105743	0.027160
6987.272037	0.696970	-111.718750	-147.070312
6987.274039	0.830635	-111.718750	-147.070312
6987.276039	0.828422	9.112638	0.040493
6988.294050	0.303197	209.667969	168.359375
6988.296052	0.622619	209.667969	168.359375
6988.298051	0.825394	209.667969	168.359375
6988.300053	0.829256	209.667969	168.359375
6988.302051	0.827351	9.100860	0.023394
6989.356160	0.664170	-117.089844	-150.683594
6989.358162	0.830018	-117.089844	-150.683594
6989.360161	0.829044	9.119480	0.038876
6990.366779	0.780301	184.472656	166.894531
6990.368777	0.829870	184.472656	166.894531
6990.370777	0.827471	9.102180	0.023834
6991.437373	0.411465	-119.140625	-150.488281
6991.439376	0.720712	-119.140625	-150.488281
6991.441375	0.832846	-119.140625	-150.488281
6991.443374	0.830151	9.131666	0.042107
6992.438380	0.500831	225.195312	171.386719
6992.440383	0.781404	225.195312	171.386719
6992.442382	0.829702	225.195312	171.386719
6992.444382	0.827307	9.100373	0.022408
6993.520372	0.602368	-119.335937	-150.292969
6993.522373	0.611967	-119.335937	-150.292969
6993.524374	0.828968	-119.335937	-150.292969
6993.526375	0.827035	9.097386	0.041727
6994.512910	0.646477	189.355469	172.363281
6994.514911	0.828053	189.355469	172.363281
6994.516911	0.828622	9.114845	0.023154
6995.596986	0.348447	-118.457031	-148.242187
6995.598987	0.665406	-118.457031	-148.242187
6995.600987	0.829057	-118.457031	-148.242187
6995.602987	0.828082	9.108898	0.044397
6996.586988	0.313481	220.019531	176.367187
6996.589012	0.632235	220.019531	176.367187
6996.591016	0.827619	220.019531	176.367187
6996.593016	0.829363	220.019531	176.367187
6996.595016	0.827576	9.103333	0.023638
6997.675067	0.411929	-117.480469	-146.679687
6997.677072	0.720824	-117.480469	-146.679687
6997.679075	0.832289	-117.480469	-146.679687
6997.681073	0.829563	9.125196	0.042438
6998.665037	0.533641	222.070312	177.343750
6998.667040	0.797890	222.070312	177.343750
6998.669039	0.829517	222.070312	177.343750
6998.671043	0.827303	9.100328	0.021964
6999.753084	0.463321	-118.359375	-147.558594
6999.755086	0.758619	-118.359375	-147.558594
6999.757087	0.830458	-118.359375	-147.558594
6999.759086	0.827812	9.105929	0.042178
7000.741131	0.276738	229.589844	177.343750
7000.743133	0.597619	229.589844	177.343750
7000.745134	0.820593	229.589844	177.343750
7000.747134	0.829873	229.589844	177.343750
7000.749133	0.827873	9.106603	0.022601
7001.831164	0.679455	-117.578125	-144.824219
7001.835164	0.828928	-117.578125	-144.824219
7001.837168	0.827332	9.100648	0.041087
7002.821196	0.328306	214.550781	175.097656
7002.823197	0.646293	214.550781	175.097656
7002.825199	0.828596	214.550781	175.097656
7002.827200	0.829230	9.121527	0.023080
7003.903223	0.356792	-121.386719	-149.023437
7003.905224	0.673010	-121.386719	-149.023437
7003.907225	0.829969	-121.386719	-149.023437
7003.909224	0.828523	9.113754	0.042576
7004.900236	0.296480	178.710937	171.777344
7004.902236	0.616206	178.710937	171.777344
7004.904238	0.824148	178.710937	171.777344
7004.906236	0.829139	178.710937	171.777344
7004.908237	0.827237	9.099610	0.024887
7005.976261	0.511900	-120.019531	-146.582031
7005.978264	0.787221	-120.019531	-146.582031
7005.980265	0.829529	-120.019531	-146.582031
7005.982263	0.827163	9.098795	0.042363
7006.982846	0.348061	180.078125	171.093750
7006.984846	0.664876	180.078125	171.093750
7006.986848	0.829363	180.078125	171.093750
7006.988847	0.828500	9.113498	0.024169
7008.049429	0.605476	-115.917969	-141.992187
7008.051430	0.821725	-115.917969	-141.992187
7008.053429	0.828786	-115.917969	-141.992187
7008.055430	0.826946	9.096402	0.277683
7009.067480	0.557011	167.871094	171.093750
7009.069483	0.807795	167.871094	171.093750
7009.071482	0.829625	167.871094	171.093750
7009.073482	0.827531	9.102845	0.026430
7010.120122	0.305809	-116.406250	-148.144531
7010.122125	0.624979	-116.406250	-148.144531
7010.124124	0.825876	-116.406250	-148.144531
7010.126126	0.829203	-116.406250	-148.144531
7010.128124	0.827439	9.101826	0.041207
7011.152145	0.684920	150.976562	174.121094
7011.154149	0.831963	150.976562	174.121094
7011.156147	0.830076	9.130833	0.028414
7012.190704	0.399306	-108.886719	-146.191406
7012.192706	0.710354	-108.886719	-146.191406
7012.194705	0.831296	-108.886719	-146.191406
7012.196706	0.828580	9.114384	0.038717
7013.236732	0.717990	144.726562	182.226562
7013.240733	0.828244	144.726562	182.226562
7013.242735	0.826677	9.093451	0.029813
7014.262770	0.481104	-106.347656	-155.078125
7014.266770	0.829841	-106.347656	-155.078125
7014.268772	0.827394	-106.347656	-155.078125
7014.270778	0.825942	9.085360	0.037861
7015.316839	0.802345	124.511719	191.308594
7015.318841	0.828990	124.511719	191.308594
7015.320841	0.826850	9.095348	0.032048
7016.340889	0.826718	-105.371094	-169.238281
7016.342891	0.828441	-105.371094	-169.238281
7016.344891	0.826676	9.093433	0.035977
7017.395467	0.796251	89.355469	198.046875
7017.397469	0.828945	89.355469	198.046875
7017.399470	0.826889	9.095782	0.032909
7018.416115	0.561805	-100.097656	-172.265625
7018.418118	0.809530	-100.097656	-172.265625
7018.420118	0.829513	-100.097656	-172.265625
7018.422118	0.829413	9.123548	0.062111
7019.466116	0.463639	93.261719	208.203125
7019.468117	0.758591	93.261719	208.203125
7019.470117	0.830067	93.261719	208.203125
7019.472117	0.827491	9.102402	0.036943
7020.496158	0.365689	-99.218750	-179.101562
7020.498159	0.680918	-99.218750	-179.101562
7020.500161	0.830072	-99.218750	-179.101562
7020.502161	0.828256	9.110813	0.032111
7021.540127	0.609417	101.953125	214.941406
7021.542131	0.823076	101.953125	214.941406
7021.544132	0.829360	101.953125	214.941406
7021.546140	0.827471	9.102180	0.294036
7022.580193	0.639226	-101.269531	-187.402344
7022.582194	0.645111	-101.269531	-187.402344
7022.584195	0.828619	9.114810	0.033300
7023.613190	1.019859	80.175781	215.722656
7023.615192	0.744301	80.175781	215.722656
7023.617192	0.832341	80.175781	215.722656
7023.619192	0.829474	9.124212	0.035095
7024.660154	0.590992	-99.316406	-182.519531
7024.662155	0.818495	-99.316406	-182.519531
7024.664156	0.829168	-99.316406	-182.519531
7024.666157	0.827267	9.099938	0.205930
7025.686226	0.351972	112.402344	220.898437
7025.688229	0.668372	112.402344	220.898437
7025.690230	0.830362	112.402344	220.898437
7025.692229	0.829181	9.120996	0.035611
7026.742278	0.774721	-102.441406	-187.011719
7026.744279	0.829234	-102.441406	-187.011719
7026.746279	0.826853	9.095384	0.032120
7027.760911	0.603956	103.515625	220.019531
7027.762910	0.821588	103.515625	220.019531
7027.764913	0.829029	103.515625	220.019531
7027.766912	0.827106	9.098166	0.270886
7028.822986	0.827805	-103.417969	-186.523437
7028.824989	0.828707	9.115775	0.032084
7029.833555	0.374279	83.007812	218.261719
7029.835557	0.688710	83.007812	218.261719
7029.837556	0.831639	83.007812	218.261719
7029.839556	0.829608	9.125692	0.036642
7030.897562	0.466859	-103.222656	-183.203125
7030.899564	0.477795	-103.222656	-183.203125
7030.901562	0.830198	-103.222656	-183.203125
7030.903563	0.827504	9.102544	0.033718
7031.911581	0.507403	103.417969	220.117187
7031.913583	0.784847	103.417969	220.117187
7031.915585	0.829659	103.417969	220.117187
7031.917585	0.827324	9.100568	0.036029
7032.975699	0.537023	-104.394531	-185.253906
7032.977700	0.799335	-104.394531	-185.253906
7032.979700	0.829463	-104.394531	-185.253906
7032.981700	0.827342	9.100762	0.032563
7033.990643	0.773787	115.820312	222.460937
7033.992650	0.829938	115.820312	222.460937
7033.994653	0.827527	9.102800	0.036250
7035.054685	0.816551	-101.171875	-176.660156
7035.056686	0.828954	-101.171875	-176.660156
7035.058686	0.827025	9.097280	0.033554
7036.068756	0.466946	90.136719	221.289062
7036.070760	0.760830	90.136719	221.289062
7036.072759	0.830274	90.136719	221.289062
7036.074759	0.827665	9.104317	0.036964
7037.125342	0.355138	-102.539062	-185.253906
7037.127343	0.671225	-102.539062	-185.253906
7037.129342	0.829484	-102.539062	-185.253906
7037.131344	0.828176	9.109935	0.033276
7038.147309	0.354889	94.921875	224.023437
7038.149309	0.671001	94.921875	224.023437
7038.151309	0.829231	94.921875	224.023437
7038.153307	0.828025	9.108278	0.037913
7039.197369	0.264553	-101.074219	-181.250000
7039.199372	0.586052	-101.074219	-181.250000
7039.201372	0.817278	-101.074219	-181.250000
7039.203373	0.829433	-101.074219	-181.250000
7039.205373	0.827392	9.101313	0.034505
7040.229377	0.563655	92.871094	223.242187
7040.231378	0.809931	92.871094	223.242187
7040.233378	0.829094	92.871094	223.242187
7040.235379	0.827156	9.098716	0.067296
7041.273383	0.490120	-98.925781	-174.707031
7041.275385	0.775134	-98.925781	-174.707031
7041.277385	0.829513	-98.925781	-174.707031
7041.279385	0.827169	9.098857	0.031423
7042.313402	0.829798	75.000000	218.847656
7042.315404	0.828167	75.000000	218.847656
7042.317405	0.826585	9.092432	0.037832
7043.345995	0.330769	-103.027344	-178.417969
7043.347998	0.648514	-103.027344	-178.417969
7043.350002	0.828718	-103.027344	-178.417969
7043.352006	0.829054	9.119596	0.034373
7044.390061	0.430312	81.445312	214.746094
7044.392061	0.734985	81.445312	214.746094
7044.394063	0.830910	81.445312	214.746094
7044.396061	0.828135	9.109483	0.037646
7045.420033	0.317267	-103.320312	-167.968750
7045.422044	0.635621	-103.320312	-167.968750
7045.424044	0.827030	-103.320312	-167.968750
7045.426043	0.828767	-103.320312	-167.968750
7045.428043	0.826997	9.096970	0.035717
7046.470097	0.392819	96.875000	208.691406
7046.472098	0.704825	96.875000	208.691406
7046.474098	0.831407	96.875000	208.691406
7046.476100	0.829063	9.119692	0.036736
7047.498108	0.619519	-106.054687	-157.421875
7047.500109	0.824421	-106.054687	-157.421875
7047.502115	0.828736	-106.054687	-157.421875
7047.504115	0.827018	9.097200	0.352980
7048.548077	0.517400	97.753906	198.144531
7048.550075	0.790039	97.753906	198.144531
7048.552075	0.829450	97.753906	198.144531
7048.554076	0.827219	9.099406	0.033505
7049.574059	0.257931	-109.667969	-148.437500
7049.576060	0.579735	-109.667969	-148.437500
7049.578061	0.588726	-109.667969	-148.437500
7049.580060	0.829247	-109.667969	-148.437500
7049.582061	0.827217	9.099389	0.041076
7050.622099	0.583784	125.195312	192.089844
7050.624103	0.815983	125.195312	192.089844
7050.626102	0.828727	125.195312	192.089844
7050.628103	0.826735	9.094090	0.168504
7051.658137	0.544586	-114.453125	-142.871094
7051.660140	0.802216	-114.453125	-142.871094
7051.662140	0.828862	-114.453125	-142.871094
7051.664138	0.826751	9.094257	0.040831
7052.694127	0.497082	118.652344	184.179687
7052.696127	0.779133	118.652344	184.179687
7052.698130	0.829546	118.652344	184.179687
7052.700129	0.827164	9.098804	0.032552
7053.736725	0.275667	-118.750000	-139.160156
7053.740726	0.820107	-118.750000	-139.160156
7053.742727	0.829517	-118.750000	-139.160156
7053.744729	0.827522	9.102739	0.044649
7054.766730	0.503267	166.015625	182.812500
7054.768733	0.782442	166.015625	182.812500
7054.770731	0.829023	166.015625	182.812500
7054.772731	0.826829	9.095118	0.029469
7055.820809	0.483639	-121.875000	-136.621094
7055.822810	0.771166	-121.875000	-136.621094
7055.824811	0.829687	-121.875000	-136.621094
7055.826811	0.827317	9.100488	0.043526
7056.836773	0.427107	141.015625	180.761719
7056.838778	0.732446	141.015625	180.761719
7056.840782	0.830584	141.015625	180.761719
7056.842783	0.827854	9.106390	0.028203
7057.901743	0.258223	-122.167969	-133.007812
7057.903743	0.579960	-122.167969	-133.007812
7057.905743	0.815123	-122.167969	-133.007812
7057.907743	0.828845	-122.167969	-133.007812
7057.909743	0.826959	9.096544	0.046071
7058.909778	0.330599	178.417969	184.472656
7058.911781	0.648375	178.417969	184.472656
7058.913779	0.828295	178.417969	184.472656
7058.915781	0.828681	9.115492	0.028344
7059.983739	0.620538	-125.390625	-135.839844
7059.985741	0.824252	-125.390625	-135.839844
7059.989740	0.826598	-125.390625	-135.839844
7059.991741	0.825225	9.077473	0.365427
7060.984320	0.316325	190.234375	187.597656
7060.986329	0.634836	190.234375	187.597656
7060.988333	0.826731	190.234375	187.597656
7060.990333	0.828502	9.113524	0.027432
7062.062841	0.440660	-126.855469	-137.500000
7062.064842	0.742477	-126.855469	-137.500000
7062.066846	0.830035	-126.855469	-137.500000
7062.068845	0.827346	9.100807	0.046739
7063.061828	0.613964	156.738281	186.132812
7063.063830	0.823070	156.738281	186.132812
7063.065831	0.828379	156.738281	186.132812
7063.067830	0.826512	9.091635	0.026566
7064.139824	0.407264	-123.828125	-132.128906
7064.141825	0.716909	-123.828125	-132.128906
7064.143826	0.831159	-123.828125	-132.128906
7064.145826	0.828527	9.113799	0.047335
7065.137782	0.500869	154.199219	186.914062
7065.139784	0.781533	154.199219	186.914062
7065.141783	0.830064	154.199219	186.914062
7065.143783	0.827643	9.104077	0.026050
7066.215824	0.383555	-124.609375	-133.593750
7066.219825	0.830532	-124.609375	-133.593750
7066.221828	0.828146	-124.609375	-133.593750
7066.223826	0.826572	9.092290	0.047034
7067.215784	0.302320	148.828125	187.207031
7067.217784	0.621404	148.828125	187.207031
7067.219783	0.824483	148.828125	187.207031
7067.221784	0.828402	148.828125	187.207031
7067.223784	0.826629	9.092919	0.027683
7068.296761	0.828940	-126.757812	-135.449219
7068.298762	0.828370	-126.757812	-135.449219
7068.300764	0.826591	9.092504	0.046498
7069.293310	0.359329	174.902344	188.183594
7069.295314	0.373719	174.902344	188.183594
7069.297313	0.832836	174.902344	188.183594
7069.301311	0.829748	9.127226	0.027853
7070.367352	0.420815	-124.902344	-132.714844
7070.369355	0.727532	-124.902344	-132.714844
7070.371356	0.830914	-124.902344	-132.714844
7070.373354	0.828244	9.110680	0.047456
7071.375355	0.561868	163.281250	187.304687
7071.377355	0.809750	163.281250	187.304687
7071.381355	0.827693	163.281250	187.304687
7071.385353	0.826438	9.090819	0.049895
7072.443371	0.716510	-121.386719	-128.320312
7072.445372	0.831277	-121.386719	-128.320312
7072.447373	0.828687	9.115554	0.046238
7073.457761	0.498264	134.375000	185.742187
7073.459761	0.779603	134.375000	185.742187
7073.461762	0.829156	134.375000	185.742187
7073.463762	0.826861	9.095472	0.028392
7074.518700	0.830620	-118.554687	-128.222656
7074.522701	0.826500	9.091501	0.044838
7075.540750	1.200749	115.527344	186.621094
7075.544750	0.830020	115.527344	186.621094
7075.546752	0.827456	115.527344	186.621094
7075.548750	0.825881	9.084696	0.030111
7076.585708	0.439682	-117.285156	-131.933594
7076.587710	0.741656	-117.285156	-131.933594
7076.589711	0.829801	-117.285156	-131.933594
7076.591711	0.827120	9.098317	0.044229
7077.623678	0.543507	106.835937	191.796875
7077.625681	0.802306	106.835937	191.796875
7077.629678	0.827357	106.835937	191.796875
7077.631680	0.826022	9.086237	0.032819
7078.658230	0.345776	-117.382812	-142.578125
7078.660240	0.662679	-117.382812	-142.578125
7078.662247	0.829496	-117.382812	-142.578125
7078.664248	0.828571	9.114278	0.043903
7079.704321	0.358664	90.917969	199.316406
7079.706321	0.674395	90.917969	199.316406
7079.708321	0.829493	90.917969	199.316406
7079.710321	0.828033	9.108367	0.034874
7080.732350	0.430178	-110.449219	-143.457031
7080.734351	0.734778	-110.449219	-143.457031
7080.736353	0.830427	-110.449219	-143.457031
7080.738352	0.827769	9.105459	0.041496
7081.784406	0.330463	76.660156	208.984375
7081.786412	0.648025	76.660156	208.984375
7081.788417	0.828660	76.660156	208.984375
7081.790419	0.828877	9.117645	0.037429
7082.808445	0.661524	-109.960937	-156.347656
7082.810449	0.829634	-109.960937	-156.347656
7082.812448	0.829032	9.119347	0.558079
7083.861371	0.294448	50.390625	215.527344
7083.863374	0.614029	50.390625	215.527344
7083.865372	0.822949	50.390625	215.527344
7083.867374	0.824068	50.390625	215.527344
7083.869373	0.826374	9.090110	0.037768
7084.887395	0.536678	-105.175781	-158.789062
7084.889397	0.549944	-105.175781	-158.789062
7084.893396	0.826885	-105.175781	-158.789062
7084.895395	0.825551	9.081062	0.036297
7085.937398	0.598876	64.355469	225.683594
7085.939402	0.820462	64.355469	225.683594
7085.941400	0.829199	64.355469	225.683594
7085.943400	0.827227	9.099496	0.245711
7086.967404	0.577146	-104.589844	-164.941406
7086.969407	0.814202	-104.589844	-164.941406
7086.973405	0.826774	-104.589844	-164.941406
7086.975408	0.825483	9.080309	0.148162
7088.009409	0.263648	45.117187	229.296875
7088.011410	0.585051	45.117187	229.296875
7088.013411	0.816432	45.117187	229.296875
7088.015412	0.828725	45.117187	229.296875
7088.017411	0.826751	9.094257	0.040373
7089.049404	0.530026	-103.027344	-165.429687
7089.051408	0.795879	-103.027344	-165.429687
7089.053406	0.828899	-103.027344	-165.429687
7089.055406	0.826710	9.093815	0.034086
7090.083421	0.496731	58.300781	234.765625
7090.085423	0.778718	58.300781	234.765625
7090.087423	0.829212	58.300781	234.765625
7090.089423	0.826863	9.095498	0.040194
7091.127473	0.344292	-102.636719	-165.820312
7091.131473	0.829755	-102.636719	-165.820312
7091.133475	0.829019	-102.636719	-165.820312
7091.135476	0.827291	9.100204	0.035516
7092.155557	0.345052	76.171875	238.867187
7092.157561	0.661822	76.171875	238.867187
7092.159560	0.830019	76.171875	238.867187
7092.161561	0.829360	9.122963	0.040910
7093.207615	0.328157	-107.324219	-172.558594
7093.209616	0.645937	-107.324219	-172.558594
7093.211615	0.828005	-107.324219	-172.558594
7093.213616	0.828559	9.114153	0.037133
7094.230208	0.262912	70.800781	238.574219
7094.234210	0.816018	70.800781	238.574219
7094.236216	0.828526	70.800781	238.574219
7094.238221	0.826640	9.093043	0.041763
7095.288217	0.546689	-108.105469	-173.144531
7095.290220	0.803052	-108.105469	-173.144531
7095.292223	0.828787	-108.105469	-173.144531
7095.296220	0.825400	9.079395	0.036684
7096.308781	0.569915	62.207031	238.085937
7096.310783	0.811439	62.207031	238.085937
7096.312784	0.828228	62.207031	238.085937
7096.314786	0.826395	9.090349	0.040498
7097.369350	0.795924	-104.882812	-163.671875
7097.371353	0.798652	-104.882812	-163.671875
7097.373350	0.826696	9.093655	0.035032
7098.385378	0.477180	65.234375	239.355469
7098.387380	0.767276	65.234375	239.355469
7098.389380	0.829753	65.234375	239.355469
7098.391378	0.827208	9.099292	0.040321
7099.441412	0.274336	-107.226562	-168.945312
7099.443414	0.595098	-107.226562	-168.945312
7099.445411	0.818779	-107.226562	-168.945312
7099.447413	0.828185	-107.226562	-168.945312
7099.449412	0.828116	9.109280	0.037438
7100.463402	0.610535	54.296875	238.769531
7100.465402	0.822443	54.296875	238.769531
7100.467404	0.828381	54.296875	238.769531
7100.469403	0.826511	9.091626	0.041809
7101.519956	0.657157	-107.714844	-171.484375
7101.521959	0.828194	-107.714844	-171.484375
7101.523959	0.827801	9.105805	0.544940
7102.543966	0.577497	58.789062	239.941406
7102.545970	0.814340	58.789062	239.941406
7102.547968	0.815854	58.789062	239.941406
7102.549968	0.826887	9.095756	0.149259
7103.591971	1.973622	-105.273437	-165.625000
7103.593972	0.716977	-105.273437	-165.625000
7103.595972	0.831241	-105.273437	-165.625000
7103.597972	0.828575	9.114322	0.036665
7104.622013	0.307101	64.550781	240.429687
7104.624017	0.625937	64.550781	240.429687
7104.626015	0.825464	64.550781	240.429687
7104.628016	0.828726	64.550781	240.429687
7104.630016	0.826890	9.095791	0.040869
7105.665995	0.474576	-104.199219	-161.523437
7105.667998	0.765499	-104.199219	-161.523437
7105.669997	0.829421	-104.199219	-161.523437
7105.671996	0.827069	9.097758	0.036330
7106.706032	0.732685	46.484375	235.742187
7106.708033	0.830157	46.484375	235.742187
7106.710034	0.827513	9.102641	0.041812
7107.740619	0.709868	-108.007812	-164.746094
7107.742621	0.830550	-108.007812	-164.746094
7107.744621	0.827958	9.107542	0.037225
7108.785177	0.485401	51.660156	231.542969
7108.787180	0.772053	51.660156	231.542969
7108.789179	0.829168	51.660156	231.542969
7108.791178	0.826675	9.093425	0.040916
7109.815143	0.617687	-107.617187	-154.101562
7109.817144	0.823694	-107.617187	-154.101562
7109.819145	0.828289	-107.617187	-154.101562
7109.821149	0.826403	9.090438	0.039687
7110.865124	0.595499	60.937500	225.683594
7110.867124	0.818800	60.937500	225.683594
7110.869124	0.828308	60.937500	225.683594
7110.871126	0.826364	9.090004	0.233055
7111.891147	0.591612	-109.570312	-145.019531
7111.893148	0.817859	-109.570312	-145.019531
7111.895147	0.828329	-109.570312	-145.019531
7111.897149	0.826473	9.091200	0.040650
7112.941214	0.425248	68.554687	217.578125
7112.943215	0.730967	68.554687	217.578125
7112.945215	0.830935	68.554687	217.578125
7112.947219	0.828042	9.108464	0.038534
7113.969302	0.735718	-113.183594	-137.500000
7113.971306	0.830329	-113.183594	-137.500000
7113.975305	0.826371	9.090084	0.042804
7115.019318	0.723907	86.132812	210.156250
7115.021321	0.829933	86.132812	210.156250
7115.023321	0.827348	9.100824	0.036663
7116.049397	0.558216	-119.824219	-135.253906
7116.053397	0.828803	-119.824219	-135.253906
7116.057397	0.825531	-119.824219	-135.253906
7116.059399	0.824528	9.069806	0.043772
7117.091415	0.495416	79.492187	200.683594
7117.095415	0.829030	79.492187	200.683594
7117.097417	0.826732	79.492187	200.683594
7117.099417	0.825367	9.079041	0.036355
7118.131960	0.829815	-125.683594	-133.300781
7118.135959	0.826309	-125.683594	-133.300781
7118.139960	0.824033	9.064365	0.046119
7119.166034	0.656125	91.699219	197.460937
7119.168034	0.828366	91.699219	197.460937
7119.170034	0.828136	9.109492	0.033829
7120.210654	0.353861	-126.464844	-126.855469
7120.212656	0.670022	-126.464844	-126.855469
7120.214656	0.829215	-126.464844	-126.855469
7120.216655	0.827995	9.107950	0.047161
7121.234712	0.362231	131.933594	199.121094
7121.236713	0.677688	131.933594	199.121094
7121.238712	0.830240	131.933594	199.121094
7121.240712	0.828584	9.114420	0.033349
7122.294756	0.637329	-128.613281	-124.902344
7122.296759	0.826900	-128.613281	-124.902344
7122.298757	0.828308	9.111388	0.455429
7123.309387	0.371807	144.628906	200.000000
7123.311388	0.686385	144.628906	200.000000
7123.313390	0.831503	144.628906	200.000000
7123.315388	0.829530	9.124832	0.031085
7124.373450	0.553273	-128.320312	-121.191406
7124.375452	0.806154	-128.320312	-121.191406
7124.377452	0.829329	-128.320312	-121.191406
7124.379451	0.829255	9.121801	0.049006
7125.383433	0.523256	138.671875	200.195312
7125.385437	0.792477	138.671875	200.195312
7125.387437	0.828771	138.671875	200.195312
7125.389436	0.826557	9.092131	0.031039
7126.453447	0.432808	-130.273437	-122.265625
7126.455450	0.736607	-130.273437	-122.265625
7126.457448	0.830163	-130.273437	-122.265625
7126.459449	0.827439	9.101826	0.049524
7127.457457	0.430343	116.699219	199.609375
7127.459459	0.734700	116.699219	199.609375
7127.461460	0.830155	116.699219	199.609375
7127.463460	0.827472	9.102190	0.030587
7128.529485	0.329088	-129.296875	-120.214844
7128.531487	0.646761	-129.296875	-120.214844
7128.533486	0.828582	-129.296875	-120.214844
7128.535486	0.829164	9.120809	0.053679
7129.535970	0.636586	154.394531	204.003906
7129.537974	0.826277	154.394531	204.003906
7129.539973	0.827878	9.106656	0.030232
7130.608513	0.463309	-132.031250	-122.949219
7130.610516	0.758122	-132.031250	-122.949219
7130.614514	0.827098	-132.031250	-122.949219
7130.616516	0.825612	9.081736	0.053112
7131.614545	0.693559	156.835937	204.687500
7131.616545	0.829413	156.835937	204.687500
7131.618545	0.827326	9.100585	0.725916
7132.686559	0.436679	-130.566406	-120.800781
7132.688559	0.739445	-130.566406	-120.800781
7132.690558	0.830354	-130.566406	-120.800781
7132.692559	0.827556	9.103120	0.051474
7133.692603	0.590372	143.359375	203.613281
7133.694606	0.817347	143.359375	203.613281
7133.696604	0.828116	143.359375	203.613281
7133.698606	0.826182	9.088001	0.031255
7134.758652	0.275563	-132.617187	-124.609375
7134.760657	0.596004	-132.617187	-124.609375
7134.762660	0.819539	-132.617187	-124.609375
7134.764659	0.828658	-132.617187	-124.609375
7134.766660	0.826811	9.094922	0.052871
7135.772687	0.320723	113.769531	201.074219
7135.774693	0.638763	113.769531	201.074219
7135.776694	0.827648	113.769531	201.074219
7135.778695	0.828874	9.117610	0.030912
7136.833710	0.429835	-128.613281	-120.117187
7136.835712	0.734251	-128.613281	-120.117187
7136.837712	0.830172	-128.613281	-120.117187
7136.839713	0.827503	9.102535	0.050570
7137.853698	0.682800	114.843750	201.660156
7137.855700	0.828969	114.843750	201.660156
7137.857698	0.827218	9.099398	0.033510
7138.907765	0.420878	-128.320312	-122.851562
7138.911765	0.831154	-128.320312	-122.851562
7138.913767	0.828395	-128.320312	-122.851562
7138.915768	0.826905	9.095950	0.050737
7139.938298	0.811027	104.882812	204.199219
7139.940302	0.828626	104.882812	204.199219
7139.942302	0.826714	9.093859	0.096725
7140.984239	0.807994	-122.851562	-120.898437
7140.988252	0.826966	-122.851562	-120.898437
7140.990253	0.825659	9.082250	0.061733
7142.018282	0.356390	85.058594	207.519531
7142.020283	0.672159	85.058594	207.519531
7142.022283	0.828703	85.058594	207.519531
7142.024283	0.827513	9.102641	0.035154
7143.052236	0.392723	-123.535156	-130.371094
7143.054237	0.704701	-123.535156	-130.371094
7143.056236	0.832039	-123.535156	-130.371094
7143.060235	0.827855	9.106408	0.049975
7144.100795	0.472337	73.828125	215.136719
7144.102798	0.763972	73.828125	215.136719
7144.104798	0.829259	73.828125	215.136719
7144.106796	0.826779	9.094568	0.036768
7145.126841	0.306778	-117.187500	-131.054687
7145.128843	0.625516	-117.187500	-131.054687
7145.130842	0.825205	-117.187500	-131.054687
7145.132844	0.828447	-117.187500	-131.054687
7145.134843	0.826613	9.092743	0.048831
7146.176836	0.454433	60.839844	223.632812
7146.178838	0.752095	60.839844	223.632812
7146.180838	0.756146	60.839844	223.632812
7146.182840	0.826987	9.096855	0.039281
7147.206866	0.676527	-114.550781	-139.062500
7147.208870	0.829450	-114.550781	-139.062500
7147.210869	0.828055	9.108606	0.043911
7148.254911	0.349838	51.757812	233.300781
7148.256914	0.666188	51.757812	233.300781
7148.260911	0.827548	51.757812	233.300781
7148.262913	0.825917	9.085085	0.040923
7149.284962	0.498542	-112.109375	-145.214844
7149.286965	0.779507	-112.109375	-145.214844
7149.288965	0.828682	-112.109375	-145.214844
7149.290965	0.826403	9.090438	0.041514
7150.330998	0.500434	30.273437	238.085937
7150.333000	0.780676	30.273437	238.085937
7150.335002	0.828965	30.273437	238.085937
7150.337000	0.826768	9.094453	0.041706
7151.365997	0.802690	-112.500000	-153.906250
7151.367999	0.828327	-112.500000	-153.906250
7151.369998	0.826329	9.089622	0.038689
7152.404588	0.419280	50.000000	248.046875
7152.406589	0.726255	50.000000	248.046875
7152.408589	0.830578	50.000000	248.046875
7152.410590	0.828008	9.108083	0.041833
7153.444664	0.285111	-112.109375	-157.910156
7153.446665	0.605049	-112.109375	-157.910156
7153.448666	0.820717	-112.109375	-157.910156
7153.452663	0.825984	-112.109375	-157.910156
7153.454667	0.824744	9.072182	0.039501
7154.478694	0.499620	25.683594	248.632812
7154.480694	0.780241	25.683594	248.632812
7154.482696	0.828990	25.683594	248.632812
7154.484694	0.826704	9.093743	0.044772
7155.525648	0.720814	-110.839844	-156.347656
7155.527651	0.829772	-110.839844	-156.347656
7155.529651	0.827172	9.098892	0.039799
7156.553618	0.299348	48.828125	254.296875
7156.555619	0.618478	48.828125	254.296875
7156.557621	0.823763	48.828125	254.296875
7156.559619	0.828235	48.828125	254.296875
7156.561620	0.826483	9.091316	0.041427
7157.605643	0.685154	-110.742187	-155.078125
7157.607645	0.829837	-110.742187	-155.078125
7157.609646	0.827780	9.105584	0.040333
7158.629634	0.361423	52.148437	257.128906
7158.633636	0.830918	52.148437	257.128906
7158.635636	0.829349	52.148437	257.128906
7158.637638	0.827592	9.103510	0.043763
7159.683710	0.502893	-110.644531	-154.199219
7159.685712	0.782373	-110.644531	-154.199219
7159.687712	0.829548	-110.644531	-154.199219
7159.689710	0.827164	9.098804	0.039142
7160.705732	0.742663	32.812500	254.296875
7160.707734	0.830281	32.812500	254.296875
7160.709734	0.827676	9.104431	0.043568
7161.760300	0.489742	-110.351562	-152.636719
7161.762302	0.774714	-110.351562	-152.636719
7161.764302	0.829138	-110.351562	-152.636719
7161.766303	0.826798	9.094781	0.039568
7162.782397	0.432190	45.117187	257.128906
7162.784400	0.736039	45.117187	257.128906
7162.786400	0.739578	45.117187	257.128906
7162.788400	0.827371	9.101082	0.041898
7163.836420	0.402774	-111.621094	-154.980469
7163.838425	0.712852	-111.621094	-154.980469
7163.840428	0.830640	-111.621094	-154.980469
7163.842429	0.828107	9.109181	0.041217
7164.860507	0.497029	54.882812	259.375000
7164.862511	0.778524	54.882812	259.375000
7164.864511	0.828613	54.882812	259.375000
7164.866509	0.826337	9.089711	0.042443
7165.914587	0.557158	-110.449219	-153.417969
7165.916588	0.807056	-110.449219	-153.417969
7165.918589	0.828651	-110.449219	-153.417969
7165.920588	0.826594	9.092529	0.037772
7166.940580	0.468437	46.777344	258.593750
7166.942582	0.761373	46.777344	258.593750
7166.944581	0.829195	46.777344	258.593750
7166.946580	0.826871	9.095578	0.043979
7167.988670	0.768757	-110.644531	-151.562500
7167.990673	0.829107	-110.644531	-151.562500
7167.992671	0.826792	9.094709	0.041729
7169.020671	0.522696	28.320312	254.492187
7169.022674	0.792408	28.320312	254.492187
7169.024672	0.829151	28.320312	254.492187
7169.026674	0.826859	9.095454	0.042054
7170.063227	0.461773	-110.253906	-147.460937
7170.065225	0.757335	-110.253906	-147.460937
7170.067226	0.830275	-110.253906	-147.460937
7170.069227	0.827709	9.104804	0.041456
7171.101313	0.583940	26.660156	250.781250
7171.103316	0.815624	26.660156	250.781250
7171.105316	0.828144	26.660156	250.781250
7171.109314	0.824822	9.073042	0.044667
7172.135924	0.315617	-114.941406	-150.781250
7172.137931	0.633976	-114.941406	-150.781250
7172.139932	0.826746	-114.941406	-150.781250
7172.141931	0.828601	9.114614	0.043182
7173.179979	0.413775	31.445312	245.605469
7173.181981	0.722208	31.445312	245.605469
7173.183982	0.832448	31.445312	245.605469
7173.185979	0.829812	9.127934	0.043269
7174.214006	0.699609	-114.648437	-140.917969
7174.216008	0.829873	-114.648437	-140.917969
7174.218009	0.827556	9.103120	0.044317
7175.260051	0.545603	51.171875	242.089844
7175.264053	0.828529	51.171875	242.089844
7175.266056	0.826528	51.171875	242.089844
7175.268056	0.825096	9.076055	0.042307
7176.290090	0.689260	-116.503906	-133.105469
7176.292091	0.829749	-116.503906	-133.105469
7176.294091	0.827703	9.104733	0.044774
7177.338114	0.523616	54.882812	233.496094
7177.340117	0.792653	54.882812	233.496094
7177.342116	0.828628	54.882812	233.496094
7177.346115	0.825073	9.075807	0.040123
7178.368137	0.503069	-118.945312	-125.195312
7178.370139	0.782077	-118.945312	-125.195312
7178.372138	0.828679	-118.945312	-125.195312
7178.374138	0.826395	9.090349	0.043460
7179.414199	0.511560	74.902344	227.148437
7179.416202	0.786700	74.902344	227.148437
7179.418201	0.829005	74.902344	227.148437
7179.420203	0.826785	9.094630	0.036947
7180.448324	0.814609	-123.046875	-119.824219
7180.450326	0.828387	-123.046875	-119.824219
7180.452325	0.826501	9.091511	0.158330
7181.488364	0.597328	59.277344	217.187500
7181.490366	0.819278	59.277344	217.187500
7181.492371	0.828110	59.277344	217.187500
7181.494368	0.826271	9.088976	0.250762
7182.528480	0.556465	-125.488281	-114.453125
7182.530483	0.806683	-125.488281	-114.453125
7182.532483	0.828374	-125.488281	-114.453125
7182.534483	0.826385	9.090235	0.046940
7183.560449	0.600814	86.230469	215.234375
7183.562452	0.819980	86.230469	215.234375
7183.564451	0.828050	86.230469	215.234375
7183.568450	0.824873	9.073600	0.036664
7184.608494	0.437262	-129.394531	-112.304687
7184.610495	0.449880	-129.394531	-112.304687
7184.612496	0.829799	-129.394531	-112.304687
7184.614496	0.829721	9.126933	0.048664
7185.636581	0.828886	80.175781	211.523437
7185.638583	0.827153	80.175781	211.523437
7185.640584	0.825467	9.080140	0.680194
7186.688578	0.410354	-135.742187	-115.527344
7186.692578	0.830534	-135.742187	-115.527344
7186.694578	0.827829	-135.742187	-115.527344
7186.696581	0.826432	9.090748	0.052104
7187.707557	0.426469	115.429687	215.136719
7187.709561	0.731586	115.429687	215.136719
7187.711565	0.829746	115.429687	215.136719
7187.713563	0.827145	9.098600	0.033855
7188.769615	0.533208	-135.937500	-113.378906
7188.771617	0.796773	-135.937500	-113.378906
7188.773617	0.827962	-135.937500	-113.378906
7188.775618	0.825914	9.085050	0.053899
7189.784189	0.732840	93.164062	213.085937
7189.788188	0.827100	93.164062	213.085937
7189.790191	0.825379	9.079165	0.033325
7190.848215	0.514793	-135.253906	-111.523437
7190.850216	0.788059	-135.253906	-111.523437
7190.852216	0.828493	-135.253906	-111.523437
7190.856215	0.824696	9.071659	0.051315
7191.860255	0.719311	127.539062	217.382812
7191.862257	0.830133	127.539062	217.382812
7191.864258	0.827519	9.102704	0.032475
7192.928323	0.570179	-134.472656	-109.765625
7192.930326	0.811762	-134.472656	-109.765625
7192.932328	0.828570	-134.472656	-109.765625
7192.934330	0.826536	9.091891	0.126336
7193.936377	0.639970	126.367187	218.750000
7193.938372	0.828827	126.367187	218.750000
7193.942372	0.828364	9.112009	0.033158
7195.002397	0.404575	-135.058594	-110.644531
7195.004400	0.714478	-135.058594	-110.644531
7195.006401	0.830838	-135.058594	-110.644531
7195.008399	0.828177	9.109944	0.053895
7196.014405	0.612587	112.011719	217.968750
7196.016406	0.822593	112.011719	217.968750
7196.018406	0.828217	112.011719	217.968750
7196.020405	0.826312	9.089428	0.035146
7197.078491	0.475056	-137.695312	-113.281250
7197.080493	0.765546	-137.695312	-113.281250
7197.082491	0.829093	-137.695312	-113.281250
7197.084491	0.826693	9.093628	0.055143
7198.097523	0.828844	89.550781	215.820312
7198.099524	0.826706	9.093761	0.033267
7199.154039	0.461811	-133.496094	-109.375000
7199.156040	0.756969	-133.496094	-109.375000
7199.158040	0.829143	-133.496094	-109.375000
7199.160041	0.826654	9.093194	0.053319
7200.174070	0.688413	90.039062	216.699219
7200.176070	0.826777	90.039062	216.699219
7200.180069	0.825956	9.085510	0.034263
7201.230726	0.805310	-129.980469	-108.300781
7201.232726	0.829263	-129.980469	-108.300781
7201.234726	0.829207	9.121279	0.051020
7202.255177	0.373039	92.480469	221.093750
7202.257179	0.687205	92.480469	221.093750
7202.259179	0.830618	92.480469	221.093750
7202.261180	0.828589	9.114481	0.035648
7203.301181	0.613556	-128.906250	-110.546875
7203.303184	0.822975	-128.906250	-110.546875
7203.305183	0.828441	-128.906250	-110.546875
7203.307185	0.826546	9.092007	0.337223
7204.335186	0.495308	65.136719	221.582031
7204.337190	0.777612	65.136719	221.582031
7204.339188	0.828675	65.136719	221.582031
7204.341189	0.826334	9.089676	0.037150
7205.375814	0.372012	-126.757812	-114.355469
7205.377815	0.686325	-126.757812	-114.355469
7205.379816	0.830267	-126.757812	-114.355469
7205.381819	0.828241	9.110653	0.049493
7206.419877	0.548461	70.312500	231.640625
7206.421879	0.803668	70.312500	231.640625
7206.423880	0.828351	70.312500	231.640625
7206.427877	0.825011	9.075124	0.038168
7207.449971	0.538563	-122.949219	-117.480469
7207.451974	0.799514	-122.949219	-117.480469
7207.453972	0.828505	-122.949219	-117.480469
7207.455974	0.826501	9.091511	0.047223
7208.496003	0.295307	53.417969	236.621094
7208.498004	0.614656	53.417969	236.621094
7208.500006	0.822486	53.417969	236.621094
7208.504004	0.825740	53.417969	236.621094
7208.506004	0.824370	9.068069	0.041079
7209.528033	0.676237	-125.097656	-129.687500
7209.530037	0.829028	-125.097656	-129.687500
7209.532036	0.827627	9.103900	0.045863
7210.578075	0.735526	29.589844	242.675781
7210.582076	0.827345	29.589844	242.675781
7210.584078	0.825867	9.084536	0.041001
7211.602694	0.600612	-119.140625	-131.445312
7211.604698	0.819525	-119.140625	-131.445312
7211.606696	0.827516	-119.140625	-131.445312
7211.608696	0.825618	9.081798	0.265601
7212.652701	0.505543	29.687500	252.539062
7212.654702	0.783516	29.687500	252.539062
7212.656701	0.829114	29.687500	252.539062
7212.658702	0.826740	9.094142	0.043036
7213.678644	0.323871	-116.796875	-136.328125
7213.680648	0.641555	-116.796875	-136.328125
7213.682647	0.826326	-116.796875	-136.328125
7213.684646	0.827368	9.101047	0.044326
7214.728616	0.300663	22.656250	260.449219
7214.730617	0.619722	22.656250	260.449219
7214.732620	0.824397	22.656250	260.449219
7214.734619	0.828569	22.656250	260.449219
7214.736620	0.826814	9.094958	0.044422
7215.758684	0.287036	-115.527344	-139.648437
7215.760686	0.606759	-115.527344	-139.648437
7215.762686	0.821999	-115.527344	-139.648437
7215.764686	0.828862	-115.527344	-139.648437
7215.766685	0.826938	9.096313	0.043066
7216.804706	0.694320	6.933594	261.816406
7216.806707	0.829881	6.933594	261.816406
7216.808707	0.827717	9.104884	0.748942
7217.840700	0.488949	-117.578125	-146.777344
7217.842702	0.773760	-117.578125	-146.777344
7217.844702	0.828387	-117.578125	-146.777344
7217.846702	0.826158	9.087735	0.040556
7218.880712	0.791086	29.394531	271.386719
7218.882715	0.829033	29.394531	271.386719
7218.884716	0.826811	9.094922	0.046438
7219.920764	0.458424	-117.480469	-147.656250
7219.924763	0.829084	-117.480469	-147.656250
7219.926765	0.826577	-117.480469	-147.656250
7219.928766	0.824968	9.074645	0.041534
7220.953709	0.334052	13.769531	271.093750
7220.955710	0.651217	13.769531	271.093750
7220.957710	0.830538	13.769531	271.093750
7220.959711	0.831007	9.141077	0.045909
7221.999770	0.736431	-114.648437	-141.601562
7222.001774	0.832134	-114.648437	-141.601562
7222.003771	0.829317	9.122484	0.042895
7223.028226	0.717023	22.070312	272.460937
7223.030229	0.829575	22.070312	272.460937
7223.032228	0.829533	9.124868	0.047712
7224.082204	0.828941	-117.382812	-145.898437
7224.084206	0.826441	-117.382812	-145.898437
7224.086207	0.824961	9.074574	0.043698
7225.104795	0.383502	19.238281	273.144531
7225.106796	0.696401	19.238281	273.144531
7225.108797	0.830066	19.238281	273.144531
7225.110796	0.827771	9.105486	0.046957
7226.156862	0.531217	-115.625000	-142.675781
7226.158865	0.796184	-115.625000	-142.675781
7226.160864	0.828630	-115.625000	-142.675781
7226.162864	0.826539	9.091927	0.041401
7227.184916	0.604298	31.152344	276.269531
7227.186920	0.820603	31.152344	276.269531
7227.188918	0.827980	31.152344	276.269531
7227.190917	0.826163	9.087789	0.045818
7228.232902	0.512294	-116.796875	-142.968750
7228.234906	0.787086	-116.796875	-142.968750
7228.236905	0.828931	-116.796875	-142.968750
7228.238906	0.826685	9.093532	0.040972
7229.260863	1.920959	18.261719	273.339844
7229.262863	0.775137	18.261719	273.339844
7229.264864	0.828496	18.261719	273.339844
7229.266863	0.826254	9.088799	0.046091
7230.306825	0.561265	-116.699219	-141.992187
7230.308826	0.808539	-116.699219	-141.992187
7230.312823	0.826365	-116.699219	-141.992187
7230.314825	0.824977	9.074752	0.074135
7231.340898	0.289063	12.207031	271.484375
7231.342901	0.608802	12.207031	271.484375
7231.344900	0.821234	12.207031	271.484375
7231.346900	0.827571	12.207031	271.484375
7231.348902	0.825645	9.082099	0.046490
7232.382974	0.773333	-119.042969	-143.652344
7232.384975	0.828829	-119.042969	-143.652344
7232.386975	0.826548	9.092025	0.043607
7233.421573	0.521604	25.390625	271.777344
7233.423574	0.791701	25.390625	271.777344
7233.425573	0.828822	25.390625	271.777344
7233.427573	0.826658	9.093239	0.044406
7234.457638	0.406769	-118.750000	-137.988281
7234.459640	0.716371	-118.750000	-137.988281
7234.461640	0.832753	-118.750000	-137.988281
7234.463641	0.830138	9.131516	0.044335
7235.503719	0.783538	29.785156	268.164062
7235.505720	0.829131	29.785156	268.164062
7235.507721	0.826939	9.096332	0.044286
7236.532206	0.397483	-119.921875	-134.082031
7236.534208	0.708263	-119.921875	-134.082031
7236.536207	0.830175	-119.921875	-134.082031
7236.538208	0.827707	9.104777	0.044971
7237.580183	0.465098	23.925781	260.449219
7237.582182	0.759085	23.925781	260.449219
7237.584183	0.828795	23.925781	260.449219
7237.586185	0.826354	9.089897	0.044508
7238.608230	0.375401	-120.800781	-126.171875
7238.610232	0.689322	-120.800781	-126.171875
7238.612230	0.830236	-120.800781	-126.171875
7238.614231	0.828197	9.110166	0.046192
7239.658302	0.450378	24.121094	253.417969
7239.660304	0.749280	24.121094	253.417969
7239.662304	0.829272	24.121094	253.417969
7239.664305	0.826683	9.093513	0.043815
7240.686375	0.446659	-123.730469	-120.214844
7240.688374	0.746536	-123.730469	-120.214844
7240.690375	0.829441	-123.730469	-120.214844
7240.692375	0.826844	9.095285	0.047878
7241.734423	0.444724	40.429687	245.898437
7241.738422	0.829128	40.429687	245.898437
7241.740423	0.826617	40.429687	245.898437
7241.742422	0.825047	9.075514	0.042572
7242.764397	0.333606	-128.417969	-115.722656
7242.766399	0.650853	-128.417969	-115.722656
7242.768400	0.828704	-128.417969	-115.722656
7242.770401	0.828858	9.117441	0.051162
7243.812449	0.497983	50.195312	241.406250
7243.814451	0.779337	50.195312	241.406250
7243.816451	0.829173	50.195312	241.406250
7243.818451	0.826843	9.095268	0.040157
7244.844496	0.554398	-131.738281	-111.523437
7244.846498	0.805798	-131.738281	-111.523437
7244.848498	0.828381	-131.738281	-111.523437
7244.850497	0.826316	9.089481	0.051478
7245.886527	0.814716	67.968750	237.109375
7245.888528	0.828369	67.968750	237.109375
7245.890526	0.826407	9.090473	0.156144
7246.926556	0.516100	-132.714844	-104.980469
7246.928557	0.788863	-132.714844	-104.980469
7246.932555	0.826336	-132.714844	-104.980469
7246.934557	0.824780	9.072580	0.052517
7247.958644	0.579485	69.531250	232.226562
7247.960643	0.814447	69.531250	232.226562
7247.962643	0.828263	69.531250	232.226562
7247.964644	0.826345	9.089800	0.156597
7249.006740	0.504797	-135.644531	-104.101562
7249.008739	0.783216	-135.644531	-104.101562
7249.010741	0.829119	-135.644531	-104.101562
7249.012739	0.826805	9.094860	0.053745
7250.032798	0.586324	88.378906	232.617187
7250.034799	0.815901	88.378906	232.617187
7250.036801	0.827726	88.378906	232.617187
7250.038800	0.825757	9.083330	0.036788
7251.086790	0.632927	-139.746094	-105.175781
7251.090791	0.827454	-139.746094	-105.175781
7251.092791	0.825700	-139.746094	-105.175781
7251.094794	0.824326	9.067582	0.054574
7252.105343	0.251154	67.773437	227.734375
7252.107345	0.572894	67.773437	227.734375
7252.109344	0.811984	67.773437	227.734375
7252.111344	0.827708	67.773437	227.734375
7252.113345	0.825627	9.081895	0.036843
7253.167280	0.259566	-139.746094	-101.855469
7253.169279	0.580893	-139.746094	-101.855469
7253.171280	0.814921	-139.746094	-101.855469
7253.173281	0.828430	-139.746094	-101.855469
7253.177278	0.825152	9.076675	0.054654
7254.181334	0.472978	87.695312	230.957031
7254.183337	0.764271	87.695312	230.957031
7254.185338	0.829465	87.695312	230.957031
7254.187338	0.826996	9.096961	0.036483
7255.247365	0.830159	-142.578125	-104.980469
7255.249366	0.827547	-142.578125	-104.980469
7255.251367	0.826168	9.087850	0.054633
7256.265407	0.829199	69.042969	228.808594
7256.267409	0.827029	69.042969	228.808594
7256.269411	0.825710	9.082808	0.035745
7257.321473	0.561089	-144.238281	-105.371094
7257.323474	0.808114	-144.238281	-105.371094
7257.325473	0.828026	-144.238281	-105.371094
7257.327473	0.825979	9.085768	0.089777
7258.339512	0.789843	95.410156	234.277344
7258.341514	0.829118	95.410156	234.277344
7258.343513	0.827008	9.097085	0.035048
7259.395949	0.376419	-142.089844	-104.492187
7259.397950	0.690138	-142.089844	-104.492187
7259.399950	0.829380	-142.089844	-104.492187
7259.401949	0.827370	9.101073	0.057634
7260.418542	0.557288	87.011719	234.863281
7260.420545	0.807264	87.011719	234.863281
7260.422550	0.828650	87.011719	234.863281
7260.424546	0.826651	9.093159	0.037689
7261.472582	0.451881	-140.136719	-102.734375
7261.474583	0.750305	-140.136719	-102.734375
7261.476585	0.829500	-140.136719	-102.734375
7261.478585	0.826998	9.096978	0.055238
7262.500619	0.830843	87.109375	235.839844
7262.502621	0.828769	9.116458	0.035629
7263.547060	0.427770	-136.621094	-102.734375
7263.549061	0.732506	-136.621094	-102.734375
7263.551061	0.829521	-136.621094	-102.734375
7263.553062	0.826856	9.095419	0.052423
7264.581112	0.639809	61.621094	236.230469
7264.583115	0.827087	61.621094	236.230469
7264.585114	0.828292	9.111212	0.452227
7265.621685	0.509164	-135.253906	-103.808594
7265.623686	0.785208	-135.253906	-103.808594
7265.625686	0.828530	-135.253906	-103.808594
7265.627687	0.826387	9.090252	0.052514
7266.661724	0.800623	43.359375	237.402344
7266.663726	0.828270	43.359375	237.402344
7266.665727	0.826193	9.088125	0.037545
