time (s)	coil I (A)	last det (V)	int current (uC)
7923.489764	0.556320	-126.757812	-154.882812
7923.491766	0.862668	-126.757812	-154.882812
7923.493767	0.979789	-126.757812	-154.882812
7923.495766	0.976844	10.745287	0.063031
7924.540753	0.693269	-30.761719	264.355469
7924.542754	0.949403	-30.761719	264.355469
7924.546755	0.974944	-30.761719	264.355469
7924.548754	0.973560	10.709156	0.060241
7925.597318	0.978431	-127.636719	-157.910156
7925.599320	0.975503	-127.636719	-157.910156
7925.603318	0.972590	10.698494	0.249349
7926.587882	0.396410	9.960937	256.933594
7926.589883	0.710486	9.960937	256.933594
7926.591885	0.956156	9.960937	256.933594
7926.593883	0.977208	9.960937	256.933594
7926.595884	0.974887	10.723752	0.060134
7927.694467	0.887811	-142.871094	-128.320312
7927.696467	0.979942	-142.871094	-128.320312
7927.698467	0.976872	10.745588	0.063877
7928.662521	0.479724	59.570312	228.710937
7928.664529	0.791255	59.570312	228.710937
7928.666528	0.976430	59.570312	228.710937
7928.668529	0.977156	10.748717	0.051908
7929.748648	0.427377	-148.437500	-118.261719
7929.750650	0.740370	-148.437500	-118.261719
7929.754648	0.977000	-148.437500	-118.261719
7929.756649	0.974804	-148.437500	-118.261719
7929.758649	0.973428	10.707711	0.071186
7930.771592	0.340424	21.777344	221.679687
7930.773593	0.656959	21.777344	221.679687
7930.775593	0.931994	21.777344	221.679687
7930.777593	0.977833	21.777344	221.679687
7930.779592	0.975322	10.728538	0.049081
7931.799675	0.419470	-135.449219	-137.011719
7931.801674	0.732747	-135.449219	-137.011719
7931.803674	0.963784	-135.449219	-137.011719
7931.805674	0.977055	-135.449219	-137.011719
7931.807675	0.974870	10.723575	0.069334
7932.861681	0.520252	-16.601562	257.324219
7932.863682	0.830397	-16.601562	257.324219
7932.865682	0.979567	-16.601562	257.324219
7932.867681	0.977461	10.752076	0.056270
7933.887682	1.200534	-122.558594	-156.542969
7933.889683	0.823106	-122.558594	-156.542969
7933.891684	0.979364	-122.558594	-156.542969
7933.893685	0.977656	10.754211	0.058923
7934.913717	0.346735	11.230469	271.484375
7934.915720	0.662958	11.230469	271.484375
7934.917717	0.935177	11.230469	271.484375
7934.919719	0.977784	11.230469	271.484375
7934.921719	0.975264	10.727908	0.061295
7935.993690	0.374674	-137.890625	-145.117187
7935.995689	0.689693	-137.890625	-145.117187
7935.997691	0.948151	-137.890625	-145.117187
7935.999689	0.977835	-137.890625	-145.117187
7936.001690	0.975389	10.729282	0.061687
7936.968703	0.482826	31.542969	243.652344
7936.972704	0.976604	31.542969	243.652344
7936.974705	0.977050	31.542969	243.652344
7936.978704	0.973808	10.711885	0.055981
7938.075203	0.572899	-147.167969	-118.554687
7938.077205	0.877058	-147.167969	-118.554687
7938.079206	0.983457	-147.167969	-118.554687
7938.081205	0.980700	10.787703	0.141269
7939.063225	0.549647	57.910156	223.730469
7939.065228	0.856993	57.910156	223.730469
7939.067227	0.979918	57.910156	223.730469
7939.069227	0.977059	10.747644	0.045891
7940.129228	0.473742	-143.164062	-113.671875
7940.135248	0.976710	-143.164062	-113.671875
7940.137249	0.974750	-143.164062	-113.671875
7940.139248	0.973358	10.706941	0.074916
7941.167211	0.579625	8.203125	223.730469
7941.169213	0.881698	8.203125	223.730469
7941.171213	0.980636	8.203125	223.730469
7941.173211	0.977424	10.751659	0.046702
7942.191833	0.516386	-133.691406	-129.296875
7942.193836	0.826752	-133.691406	-129.296875
7942.195835	0.978561	-133.691406	-129.296875
7942.197835	0.976714	10.743852	0.065661
7943.249845	0.549049	-29.882812	244.921875
7943.251849	0.856452	-29.882812	244.921875
7943.253848	0.979470	-29.882812	244.921875
7943.255848	0.976462	10.741087	0.058729
7944.270413	0.493242	-122.851562	-142.675781
7944.272416	0.804564	-122.851562	-142.675781
7944.274415	0.977030	-122.851562	-142.675781
7944.276415	0.976568	10.742248	0.058128
7945.324366	0.847436	-28.417969	264.941406
7945.326366	0.978992	-28.417969	264.941406
7945.328371	0.976473	10.741202	0.056677
7946.356915	0.588343	-123.925781	-155.371094
7946.358916	0.888158	-123.925781	-155.371094
7946.360916	0.979526	-123.925781	-155.371094
7946.362917	0.976427	10.740697	0.216161
7947.391539	0.878090	-20.898437	273.339844
7947.393540	0.979111	-20.898437	273.339844
7947.395541	0.976093	10.737027	0.155356
7948.444180	0.644319	-125.488281	-155.273437
7948.446178	0.924734	-125.488281	-155.273437
7948.448180	0.977627	-125.488281	-155.273437
7948.450180	0.974951	10.724461	0.053186
7949.458814	0.379681	-26.367187	271.093750
7949.460816	0.694524	-26.367187	271.093750
7949.462816	0.950309	-26.367187	271.093750
7949.464815	0.978021	-26.367187	271.093750
7949.466815	0.975677	10.732446	0.057087
7950.525840	0.463882	-126.074219	-150.488281
7950.527843	0.775834	-126.074219	-150.488281
7950.531840	0.976678	-126.074219	-150.488281
7950.533842	0.974505	-126.074219	-150.488281
7950.535844	0.973233	10.705558	0.057952
7951.535938	0.448664	2.441406	276.757812
7951.537941	0.761079	2.441406	276.757812
7951.539938	0.971038	2.441406	276.757812
7951.541942	0.976999	2.441406	276.757812
7951.543940	0.974954	10.724497	0.061632
7952.602058	0.472833	-124.218750	-148.339844
7952.604084	0.784706	-124.218750	-148.339844
7952.606086	0.976790	-124.218750	-148.339844
7952.610083	0.976009	10.736097	0.054394
7953.616090	0.513463	-4.492187	276.953125
7953.618090	0.823961	-4.492187	276.953125
7953.620099	0.978978	-4.492187	276.953125
7953.622099	0.977190	10.749089	0.056773
7954.678154	0.623384	-125.976562	-154.199219
7954.680156	0.912151	-125.976562	-154.199219
7954.682156	0.978149	-125.976562	-154.199219
7954.684155	0.975304	10.728343	0.056813
7955.704197	0.855842	-19.433594	275.781250
7955.706199	0.979226	-19.433594	275.781250
7955.708199	0.976292	10.739207	0.059413
7956.744219	0.484269	-120.800781	-146.679687
7956.746219	0.795754	-120.800781	-146.679687
7956.748219	0.977329	-120.800781	-146.679687
7956.750219	0.977834	10.756170	0.054312
7957.788237	0.411822	-20.410156	268.847656
7957.790237	0.725415	-20.410156	268.847656
7957.792240	0.961351	-20.410156	268.847656
7957.794238	0.977041	-20.410156	268.847656
7957.796238	0.974806	10.722865	0.056597
7958.816257	0.720655	-123.925781	-136.816406
7958.818258	0.959550	-123.925781	-136.816406
7958.820258	0.976727	-123.925781	-136.816406
7958.822258	0.974571	10.720278	0.058701
7959.872207	0.830636	-26.074219	246.484375
7959.874206	0.978385	-26.074219	246.484375
7959.876209	0.976340	10.739739	0.054802
7960.892776	0.375763	-134.179687	-120.898437
7960.894777	0.690728	-134.179687	-120.898437
7960.896778	0.948143	-134.179687	-120.898437
7960.898778	0.977357	-134.179687	-120.898437
7960.900778	0.974970	10.724674	0.064264
7961.942815	0.606340	26.171875	230.371094
7961.944817	0.900905	26.171875	230.371094
7961.946817	0.978734	26.171875	230.371094
7961.948817	0.975779	10.733572	0.304844
7962.984886	0.467740	-147.949219	-112.988281
7962.986885	0.779573	-147.949219	-112.988281
7962.988886	0.974708	-147.949219	-112.988281
7962.990886	0.977271	-147.949219	-112.988281
7962.992886	0.975263	10.727890	0.069952
7963.999854	0.885123	49.609375	229.003906
7964.001856	0.978650	49.609375	229.003906
7964.003858	0.975739	10.733129	0.188277
7965.083915	0.444091	-147.460937	-113.085937
7965.085918	0.756684	-147.460937	-113.085937
7965.087917	0.972023	-147.460937	-113.085937
7965.089917	0.979721	-147.460937	-113.085937
7965.091917	0.977347	10.750817	0.064560
7966.063959	0.452546	43.652344	250.488281
7966.065961	0.906578	43.652344	250.488281
7966.067960	0.978007	43.652344	250.488281
7966.069962	0.975209	10.727297	0.050834
7967.164544	0.421233	-139.062500	-130.957031
7967.166546	0.734440	-139.062500	-130.957031
7967.168547	0.964245	-139.062500	-130.957031
7967.170546	0.977122	-139.062500	-130.957031
7967.172547	0.974932	10.724257	0.060919
7968.148590	0.249938	20.117187	278.222656
7968.152590	0.874873	20.117187	278.222656
7968.154592	0.881670	20.117187	278.222656
7968.156591	0.975577	10.731347	0.056514
7969.224649	0.712873	-125.195312	-147.851562
7969.226649	0.957134	-125.195312	-147.851562
7969.228651	0.977241	-125.195312	-147.851562
7969.230649	0.974970	10.724674	0.057622
7970.252648	0.698382	-14.648437	279.003906
7970.254653	0.951416	-14.648437	279.003906
7970.256651	0.977197	-14.648437	279.003906
7970.258650	0.974946	10.724407	0.056318
7971.282724	0.688302	-125.000000	-135.937500
7971.284726	0.947233	-125.000000	-135.937500
7971.286727	0.977540	-125.000000	-135.937500
7971.288726	0.975123	10.726349	0.058804
7972.336720	0.330517	-13.281250	246.582031
7972.338722	0.647480	-13.281250	246.582031
7972.340724	0.926526	-13.281250	246.582031
7972.342721	0.977366	-13.281250	246.582031
7972.344723	0.974800	10.722804	0.053079
7973.364768	0.805312	-137.109375	-112.402344
7973.366768	0.977052	-137.109375	-112.402344
7973.368768	0.976490	10.741388	0.064986
7974.401254	0.597211	26.855469	228.613281
7974.403254	0.894397	26.855469	228.613281
7974.405254	0.978461	26.855469	228.613281
7974.407254	0.975579	10.731374	0.255344
7975.462123	0.270275	-148.925781	-107.910156
7975.464123	0.590583	-148.925781	-107.910156
7975.466123	0.889863	-148.925781	-107.910156
7975.468123	0.980038	-148.925781	-107.910156
7975.470123	0.976961	10.746572	0.067471
7976.458099	0.699845	54.687500	240.136719
7976.460102	0.951873	54.687500	240.136719
7976.462102	0.976960	54.687500	240.136719
7976.464104	0.974658	10.721235	0.047938
7977.554718	0.362808	-146.582031	-117.675781
7977.556719	0.678352	-146.582031	-117.675781
7977.558720	0.942799	-146.582031	-117.675781
7977.560718	0.977515	-146.582031	-117.675781
7977.562719	0.975175	10.726925	0.064234
7978.530799	0.479555	39.550781	264.843750
7978.532807	0.791001	39.550781	264.843750
7978.534809	0.975373	39.550781	264.843750
7978.536808	0.976080	10.736876	0.051116
7979.626910	0.625546	-137.011719	-136.621094
7979.628914	0.913530	-137.011719	-136.621094
7979.630913	0.978175	-137.011719	-136.621094
7979.632912	0.975467	10.730142	0.061667
7980.620947	0.584343	-3.125000	279.785156
7980.622949	0.885015	-3.125000	279.785156
7980.624951	0.979439	-3.125000	279.785156
7980.626951	0.976345	10.739793	0.189632
7981.693536	0.657751	-128.222656	-147.070312
7981.695536	0.932315	-128.222656	-147.070312
7981.697537	0.977667	-128.222656	-147.070312
7981.699539	0.975080	10.725879	0.055541
7982.714111	0.520724	-8.886719	285.742187
7982.716113	0.830763	-8.886719	285.742187
7982.718115	0.978819	-8.886719	285.742187
7982.720113	0.976743	10.744171	0.058149
7983.756189	0.626405	-122.753906	-141.210937
7983.758189	0.914204	-122.753906	-141.210937
7983.764189	0.974103	-122.753906	-141.210937
7983.766189	0.972861	10.701472	0.056121
7984.800190	0.304566	-15.234375	277.246094
7984.802192	0.622853	-15.234375	277.246094
7984.804192	0.911771	-15.234375	277.246094
7984.806192	0.978154	-15.234375	277.246094
7984.808192	0.975326	10.728582	0.057194
7985.826281	0.556052	-125.390625	-133.203125
7985.828284	0.862372	-125.390625	-133.203125
7985.830283	0.979439	-125.390625	-133.203125
7985.832282	0.976588	10.742470	0.057563
7986.880286	0.278463	-35.351562	260.253906
7986.882288	0.598271	-35.351562	260.253906
7986.884290	0.895110	-35.351562	260.253906
7986.888294	0.978302	-35.351562	260.253906
7986.890293	0.973958	10.713543	0.059980
7987.903228	0.357080	-128.417969	-124.121094
7987.905230	0.672854	-128.417969	-124.121094
7987.907229	0.940104	-128.417969	-124.121094
7987.909229	0.977515	-128.417969	-124.121094
7987.911230	0.975174	10.726916	0.060409
7988.961288	0.872531	-20.214844	253.320312
7988.963288	0.979232	-20.214844	253.320312
7988.965288	0.976280	10.739075	0.124429
7989.983885	0.663129	-133.007812	-121.679687
7989.985887	0.935154	-133.007812	-121.679687
7989.987889	0.977577	-133.007812	-121.679687
7989.991887	0.973552	10.709067	0.062057
7991.037869	0.860355	-11.230469	250.390625
7991.039870	0.978528	-11.230469	250.390625
7991.041871	0.975701	10.732712	0.050699
7992.061819	0.914442	-132.617187	-119.042969
7992.063821	0.977863	-132.617187	-119.042969
7992.065823	0.975024	10.725259	0.063300
7993.115872	0.434848	-3.613281	253.710937
7993.117873	0.448019	-3.613281	253.710937
7993.119877	0.967838	-3.613281	253.710937
7993.121874	0.976975	-3.613281	253.710937
7993.123874	0.974829	10.723123	0.050529
7994.135945	0.462127	-133.789062	-124.218750
7994.137948	0.774097	-133.789062	-124.218750
7994.139947	0.972994	-133.789062	-124.218750
7994.141947	0.976315	-133.789062	-124.218750
7994.143947	0.974326	10.717584	0.059259
7995.193967	0.657769	-19.628906	258.203125
7995.195968	0.932417	-19.628906	258.203125
7995.197971	0.977735	-19.628906	258.203125
7995.199970	0.975157	10.726730	0.552235
7996.214519	0.598492	-127.539062	-125.878906
7996.216522	0.895171	-127.539062	-125.878906
7996.218520	0.978182	-127.539062	-125.878906
7996.220521	0.975346	10.728804	0.057844
7997.270586	0.570241	-23.730469	270.117187
7997.272589	0.874593	-23.730469	270.117187
7997.274594	0.982309	-23.730469	270.117187
7997.276593	0.979393	10.773328	0.127859
7998.296604	0.725651	-124.609375	-134.375000
7998.298606	0.961344	-124.609375	-134.375000
7998.300606	0.977102	-124.609375	-134.375000
7998.302605	0.974782	10.722600	0.056735
7999.342707	0.418253	-18.847656	284.667969
7999.344707	0.731543	-18.847656	284.667969
7999.346707	0.963343	-18.847656	284.667969
7999.348709	0.977097	-18.847656	284.667969
7999.350708	0.974928	10.724213	0.056757
8000.384705	0.970222	-125.976562	-143.261719
8000.386706	0.976707	-125.976562	-143.261719
8000.388707	0.974615	10.720765	0.052495
8001.409304	0.362402	-18.261719	289.941406
8001.411305	0.677780	-18.261719	289.941406
8001.413304	0.942444	-18.261719	289.941406
8001.415304	0.977511	-18.261719	289.941406
8001.417303	0.975037	10.725410	0.055725
8002.473265	0.689644	-132.226562	-144.042969
8002.475268	0.947833	-132.226562	-144.042969
8002.477268	0.977345	-132.226562	-144.042969
8002.479269	0.975019	10.725214	0.053174
8003.473249	0.534735	15.136719	287.500000
8003.475249	0.843526	15.136719	287.500000
8003.477249	0.978933	15.136719	287.500000
8003.479250	0.976419	10.740608	0.055455
8004.561286	0.295489	-139.941406	-127.734375
8004.563287	0.614329	-139.941406	-127.734375
8004.565288	0.906150	-139.941406	-127.734375
8004.567289	0.978125	-139.941406	-127.734375
8004.569287	0.975320	10.728519	0.060683
8005.543283	0.776734	32.714844	268.652344
8005.545285	0.973412	32.714844	268.652344
8005.547284	0.976371	32.714844	268.652344
8005.549286	0.974281	10.717087	0.050279
8006.643884	0.427769	-149.023437	-112.011719
8006.645886	0.740843	-149.023437	-112.011719
8006.647885	0.965985	-149.023437	-112.011719
8006.649885	0.977133	-149.023437	-112.011719
8006.651884	0.974833	10.723167	0.063691
8007.621941	0.282625	52.441406	248.925781
8007.623943	0.602046	52.441406	248.925781
8007.625943	0.897496	52.441406	248.925781
8007.627942	0.977647	52.441406	248.925781
8007.629944	0.974865	10.723513	0.045982
8008.706549	0.315679	-149.218750	-101.660156
8008.708552	0.633472	-149.218750	-101.660156
8008.710552	0.918559	-149.218750	-101.660156
8008.712551	0.978489	-149.218750	-101.660156
8008.714551	0.975640	10.732038	0.067246
8009.718638	0.617381	41.503906	239.648437
8009.720640	0.908156	41.503906	239.648437
8009.722640	0.978118	41.503906	239.648437
8009.724642	0.975220	10.727421	0.356525
8010.766695	0.457356	-142.187500	-105.859375
8010.768701	0.769458	-142.187500	-105.859375
8010.770706	0.972233	-142.187500	-105.859375
8010.772707	0.976235	-142.187500	-105.859375
8010.774706	0.974201	10.716210	0.064618
8011.812677	0.369934	8.593750	253.027344
8011.814679	0.685121	8.593750	253.027344
8011.816679	0.945608	8.593750	253.027344
8011.818680	0.977188	8.593750	253.027344
8011.820679	0.974729	10.722024	0.049565
8012.838748	0.774713	-132.617187	-123.730469
8012.840749	0.973101	-132.617187	-123.730469
8012.842751	0.976349	-132.617187	-123.730469
8012.844749	0.974263	10.716892	0.058460
8013.895350	0.670448	-7.812500	283.398437
8013.897350	0.939002	-7.812500	283.398437
8013.899352	0.977693	-7.812500	283.398437
8013.901352	0.975194	10.727138	0.052558
8014.923379	0.937557	-123.242187	-136.035156
8014.925380	0.977843	-123.242187	-136.035156
8014.927382	0.975340	10.728742	0.054532
8015.955409	0.473786	-16.210937	294.726562
8015.957425	0.785571	-16.210937	294.726562
8015.959426	0.975148	-16.210937	294.726562
8015.961428	0.976461	10.741069	0.055602
8017.019400	0.562435	-128.710937	-134.277344
8017.021402	0.867724	-128.710937	-134.277344
8017.023402	0.978753	-128.710937	-134.277344
8017.025403	0.975942	10.735361	0.051645
8018.015450	0.435183	12.109375	287.792969
8018.017453	0.747957	12.109375	287.792969
8018.019451	0.967615	12.109375	287.792969
8018.021451	0.976607	12.109375	287.792969
8018.023451	0.974593	10.720526	0.054352
8019.109428	0.568166	-141.992187	-123.437500
8019.111431	0.872383	-141.992187	-123.437500
8019.113430	0.979556	-141.992187	-123.437500
8019.115430	0.976520	10.741725	0.057729
8020.085437	0.262807	42.285156	272.656250
8020.087441	0.583287	42.285156	272.656250
8020.089440	0.884066	42.285156	272.656250
8020.091440	0.978629	42.285156	272.656250
8020.093441	0.975730	10.733030	0.052665
8021.189445	0.848193	-150.390625	-112.011719
8021.191448	0.978821	-150.390625	-112.011719
8021.193446	0.976147	10.737621	0.063734
8022.166005	0.559438	69.628906	256.933594
8022.168007	0.865142	69.628906	256.933594
8022.172006	0.976759	69.628906	256.933594
8022.174006	0.975096	10.726056	0.069723
8023.258071	0.474629	-150.781250	-102.441406
8023.260077	0.503855	-150.781250	-102.441406
8023.262076	0.974881	-150.781250	-102.441406
8023.264077	0.976354	-150.781250	-102.441406
8023.266074	0.974407	10.718479	0.062531
8024.252135	0.270016	65.527344	246.875000
8024.254139	0.590198	65.527344	246.875000
8024.256137	0.889519	65.527344	246.875000
8024.258139	0.979963	65.527344	246.875000
8024.260136	0.976827	10.745101	0.044244
8025.324118	0.495783	-150.585937	-99.902344
8025.326121	0.806904	-150.585937	-99.902344
8025.328121	0.976615	-150.585937	-99.902344
8025.332119	0.974071	10.714784	0.066590
8026.340176	0.532992	50.488281	242.968750
8026.342177	0.842120	50.488281	242.968750
8026.344178	0.979684	50.488281	242.968750
8026.346178	0.977109	10.748194	0.045221
8027.398156	0.564655	-148.144531	-101.757812
8027.400158	0.869754	-148.144531	-101.757812
8027.402159	0.980661	-148.144531	-101.757812
8027.404158	0.977604	10.753644	0.062146
8028.424733	0.486825	26.269531	243.750000
8028.426735	0.798204	26.269531	243.750000
8028.428735	0.976114	26.269531	243.750000
8028.430734	0.976237	10.738605	0.046099
8029.468719	0.487643	-141.308594	-100.000000
8029.472721	0.977399	-141.308594	-100.000000
8029.474720	0.977536	-141.308594	-100.000000
8029.476722	0.975609	10.731702	0.065660
8030.506717	0.353729	10.644531	246.191406
8030.510717	0.938151	10.644531	246.191406
8030.512720	0.941673	10.644531	246.191406
8030.514720	0.974468	10.719152	0.045371
8031.545707	0.619147	-139.453125	-101.757812
8031.547709	0.909261	-139.453125	-101.757812
8031.549709	0.977949	-139.453125	-101.757812
8031.553708	0.973523	10.708757	0.381583
8032.587735	0.867392	8.886719	248.046875
8032.589740	0.874687	8.886719	248.046875
8032.591743	0.976029	10.736319	0.046597
8033.624371	0.843998	-138.769531	-100.878906
8033.626374	0.978111	-138.769531	-100.878906
8033.630372	0.973817	10.711983	0.060719
8034.662427	0.645322	7.519531	246.875000
8034.664429	0.925352	7.519531	246.875000
8034.666433	0.977739	7.519531	246.875000
8034.668430	0.975152	10.726677	0.047827
8035.701048	0.282828	-147.265625	-104.980469
8035.703050	0.602307	-147.265625	-104.980469
8035.705050	0.897828	-147.265625	-104.980469
8035.707049	0.977995	-147.265625	-104.980469
8035.709050	0.975122	10.726339	0.062748
8036.735058	1.566114	7.910156	243.066406
8036.737062	0.805627	7.910156	243.066406
8036.739066	0.977859	7.910156	243.066406
8036.741065	0.977252	10.749771	0.047481
8037.783107	0.326147	-146.484375	-99.023437
8037.785109	0.643104	-146.484375	-99.023437
8037.787109	0.924272	-146.484375	-99.023437
8037.789108	0.977982	-146.484375	-99.023437
8037.791109	0.975259	10.727846	0.062434
8038.809127	0.647399	29.980469	242.675781
8038.811130	0.657676	29.980469	242.675781
8038.813129	0.977985	29.980469	242.675781
8038.815129	0.975408	10.729486	0.044951
8039.869180	0.440536	-150.195312	-97.558594
8039.871182	0.753090	-150.195312	-97.558594
8039.873182	0.968905	-150.195312	-97.558594
8039.875183	0.976806	-150.195312	-97.558594
8039.877182	0.974746	10.722210	0.062914
8040.879196	0.882421	68.261719	249.414062
8040.883196	0.975679	68.261719	249.414062
8040.885197	0.973902	10.712922	0.177536
8041.953226	0.307818	-154.785156	-100.390625
8041.955227	0.625909	-154.785156	-100.390625
8041.957226	0.913516	-154.785156	-100.390625
8041.959227	0.977620	-154.785156	-100.390625
8041.961227	0.974908	10.723991	0.068421
8042.948258	0.823791	54.296875	254.785156
8042.950260	0.977682	54.296875	254.785156
8042.952259	0.975927	10.735202	0.042460
8044.040870	0.587260	-154.785156	-105.468750
8044.042870	0.887002	-154.785156	-105.468750
8044.046869	0.975554	-154.785156	-105.468750
8044.048870	0.973947	10.713419	0.063399
8045.017478	0.379878	53.417969	269.140625
8045.019482	0.398253	53.417969	269.140625
8045.021484	0.949656	53.417969	269.140625
8045.023488	0.977095	53.417969	269.140625
8045.025491	0.974779	10.722573	0.045031
8046.120076	0.253985	-147.265625	-112.207031
8046.122076	0.575068	-147.265625	-112.207031
8046.124077	0.878013	-147.265625	-112.207031
8046.126077	0.979928	-147.265625	-112.207031
8046.128079	0.976883	10.745713	0.063066
8047.096130	0.369124	35.742187	287.304687
8047.098135	0.684180	35.742187	287.304687
8047.100136	0.945233	35.742187	287.304687
8047.104136	0.974514	35.742187	287.304687
8047.106138	0.972824	10.701064	0.049189
8048.194145	0.496831	-138.964844	-125.781250
8048.196147	0.807984	-138.964844	-125.781250
8048.198146	0.979138	-138.964844	-125.781250
8048.200148	0.978430	10.762729	0.058053
8049.186161	0.617501	-2.441406	299.218750
8049.188164	0.908078	-2.441406	299.218750
8049.190163	0.977771	-2.441406	299.218750
8049.192162	0.974982	10.724797	0.359164
8050.260731	0.900908	-131.640625	-134.960937
8050.262733	0.978067	-131.640625	-134.960937
8050.264733	0.975189	10.727084	0.307719
8051.277313	0.316898	-8.105469	303.417969
8051.279315	0.634437	-8.105469	303.417969
8051.281315	0.918777	-8.105469	303.417969
8051.283316	0.977590	-8.105469	303.417969
8051.285315	0.974972	10.724691	0.054106
8052.319336	0.334542	-129.394531	-130.957031
8052.321339	0.651322	-129.394531	-130.957031
8052.323340	0.928671	-129.394531	-130.957031
8052.325340	0.977566	-129.394531	-130.957031
8052.327339	0.974912	10.724027	0.055437
8053.367938	0.503356	-18.261719	285.351562
8053.369938	0.814171	-18.261719	285.351562
8053.371941	0.977902	-18.261719	285.351562
8053.373939	0.976729	10.744020	0.051197
8054.394017	0.667489	-132.031250	-111.816406
8054.396019	0.937384	-132.031250	-111.816406
8054.398018	0.977499	-132.031250	-111.816406
8054.400019	0.975078	10.725853	0.055518
8055.442041	0.336754	10.156250	264.550781
8055.444044	0.653354	10.156250	264.550781
8055.446044	0.929678	10.156250	264.550781
8055.448044	0.977291	10.156250	264.550781
8055.450045	0.974720	10.721917	0.052200
8056.478086	0.541828	-144.726562	-100.195312
8056.480088	0.556356	-144.726562	-100.195312
8056.482088	0.978281	-144.726562	-100.195312
8056.484088	0.975608	10.731692	0.061175
8057.510203	0.369298	36.035156	250.488281
8057.512207	0.684328	36.035156	250.488281
8057.514206	0.945159	36.035156	250.488281
8057.516205	0.976784	36.035156	250.488281
8057.518206	0.974568	10.720251	0.043521
8058.570211	0.638066	-153.906250	-97.753906
8058.572213	0.921012	-153.906250	-97.753906
8058.574212	0.977407	-153.906250	-97.753906
8058.576212	0.974723	10.721952	0.063244
8059.572275	0.489404	68.945312	256.835937
8059.574275	0.800664	68.945312	256.835937
8059.576277	0.977357	68.945312	256.835937
8059.578276	0.977257	10.749825	0.044271
8060.660349	0.501722	-154.101562	-98.242187
8060.662352	0.812690	-154.101562	-98.242187
8060.664352	0.977378	-154.101562	-98.242187
8060.666351	0.976307	10.739376	0.062628
8061.642416	0.589759	50.000000	265.527344
8061.644417	0.888849	50.000000	265.527344
8061.646419	0.978688	50.000000	265.527344
8061.648417	0.975602	10.731622	0.043565
8062.742936	0.544849	-151.269531	-104.003906
8062.744939	0.852542	-151.269531	-104.003906
8062.746938	0.979074	-151.269531	-104.003906
8062.748938	0.976350	10.739855	0.060067
8063.721004	0.807328	44.921875	281.738281
8063.723005	0.976736	44.921875	281.738281
8063.725005	0.976125	10.737373	0.045066
8064.821634	0.701519	-145.507812	-111.230469
8064.823637	0.952571	-145.507812	-111.230469
8064.825637	0.976956	-145.507812	-111.230469
8064.827641	0.974734	10.722076	0.061957
8065.795726	0.341154	26.464844	292.871094
8065.797728	0.657539	26.464844	292.871094
8065.799728	0.931962	26.464844	292.871094
8065.801727	0.977179	26.464844	292.871094
8065.803727	0.974682	10.721501	0.049608
8066.893806	0.476724	-143.164062	-121.582031
8066.895811	0.788285	-143.164062	-121.582031
8066.897816	0.975546	-143.164062	-121.582031
8066.901814	0.974523	10.719755	0.059529
8067.880348	0.543661	16.601562	301.953125
8067.882349	0.851558	16.601562	301.953125
8067.884350	0.978966	16.601562	301.953125
8067.886350	0.976305	10.739349	0.048534
8068.968364	0.467365	-137.109375	-122.949219
8068.970367	0.779112	-137.109375	-122.949219
8068.972369	0.974293	-137.109375	-122.949219
8068.974369	0.976821	-137.109375	-122.949219
8068.976369	0.974774	10.722511	0.054533
8069.962346	0.497696	6.835937	306.542969
8069.964349	0.808744	6.835937	306.542969
8069.966349	0.978196	6.835937	306.542969
8069.968349	0.977390	10.751287	0.048636
8071.044390	0.687365	-136.230469	-127.148437
8071.048389	0.976618	-136.230469	-127.148437
8071.052388	0.972760	-136.230469	-127.148437
8071.054390	0.971591	10.687496	0.053138
8072.041007	0.488365	-0.585937	308.398437
8072.043012	0.799586	-0.585937	308.398437
8072.045009	0.977245	-0.585937	308.398437
8072.047009	0.977225	10.749471	0.049729
8073.121614	0.848781	-132.714844	-123.339844
8073.123618	0.978668	-132.714844	-123.339844
8073.125615	0.976064	10.736700	0.054504
8074.120137	0.471209	-6.347656	307.617187
8074.122144	0.782819	-6.347656	307.617187
8074.124140	0.976499	-6.347656	307.617187
8074.126140	0.978767	-6.347656	307.617187
8074.128142	0.978694	10.765635	0.051040
8075.197105	0.345904	-134.375000	-124.316406
8075.199107	0.662122	-134.375000	-124.316406
8075.201105	0.934779	-134.375000	-124.316406
8075.205104	0.975370	-134.375000	-124.316406
8075.207108	0.973737	10.711105	0.054978
8076.195143	0.370697	1.855469	307.617187
8076.197147	0.685670	1.855469	307.617187
8076.199147	0.945979	1.855469	307.617187
8076.201146	0.977082	1.855469	307.617187
8076.203146	0.974715	10.721865	0.052419
8077.277195	0.402250	-139.453125	-125.976562
8077.279197	0.716044	-139.453125	-125.976562
8077.281196	0.958045	-139.453125	-125.976562
8077.283198	0.976994	-139.453125	-125.976562
8077.285197	0.974696	10.721652	0.055779
8078.272142	0.743348	3.906250	304.003906
8078.274144	0.966002	3.906250	304.003906
8078.276146	0.976193	3.906250	304.003906
8078.278144	0.974102	10.715120	0.048182
8079.359157	0.429044	-141.699219	-119.531250
8079.361157	0.741851	-141.699219	-119.531250
8079.363157	0.966023	-141.699219	-119.531250
8079.365157	0.976653	-141.699219	-119.531250
8079.367158	0.974525	10.719772	0.054235
8080.347263	0.967914	40.136719	303.222656
8080.349264	0.976810	40.136719	303.222656
8080.351264	0.974675	10.721430	0.046213
8081.443291	0.635823	-147.070312	-113.476562
8081.445291	0.919760	-147.070312	-113.476562
8081.447290	0.977655	-147.070312	-113.476562
8081.449291	0.975086	10.725941	0.057858
8082.419886	0.519929	35.742187	290.917969
8082.421888	0.966932	35.742187	290.917969
8082.423888	0.976188	35.742187	290.917969
8082.425888	0.974106	10.715164	0.045557
8083.520459	0.553174	-150.878906	-103.417969
8083.522461	0.859906	-150.878906	-103.417969
8083.524461	0.980107	-150.878906	-103.417969
8083.526461	0.977332	10.750649	0.061616
8084.496479	0.656767	49.316406	279.492187
8084.498479	0.931312	49.316406	279.492187
8084.500483	0.976841	49.316406	279.492187
8084.502482	0.974263	10.716892	0.045010
8085.595098	0.554291	-153.515625	-95.703125
8085.597100	0.860847	-153.515625	-95.703125
8085.599100	0.979267	-153.515625	-95.703125
8085.601101	0.976438	10.740821	0.061627
8086.579064	0.460303	66.503906	268.554687
8086.581066	0.772192	66.503906	268.554687
8086.583067	0.972731	66.503906	268.554687
8086.585067	0.976363	66.503906	268.554687
8086.587067	0.974385	10.718230	0.040933
8087.661007	0.308974	-157.421875	-94.042969
8087.663010	0.627028	-157.421875	-94.042969
8087.665011	0.914386	-157.421875	-94.042969
8087.667011	0.978139	-157.421875	-94.042969
8087.669011	0.975220	10.727421	0.066663
8088.669082	0.464128	47.460937	260.253906
8088.671082	0.776057	47.460937	260.253906
8088.673082	0.973696	47.460937	260.253906
8088.675082	0.976833	47.460937	260.253906
8088.677081	0.974769	10.722458	0.042950
8089.727163	0.511108	-150.781250	-93.066406
8089.729163	0.821598	-150.781250	-93.066406
8089.731166	0.977840	-150.781250	-93.066406
8089.733164	0.976218	10.738401	0.062128
8090.763715	0.864945	31.054687	267.187500
8090.765717	0.978649	31.054687	267.187500
8090.767721	0.975849	10.734343	0.061367
8091.794210	0.446456	-140.625000	-99.121094
8091.796210	0.758808	-140.625000	-99.121094
8091.798209	0.969627	-140.625000	-99.121094
8091.800209	0.975927	-140.625000	-99.121094
8091.802210	0.973842	10.712257	0.057678
8092.848206	0.572918	-5.175781	283.300781
8092.850206	0.876515	-5.175781	283.300781
8092.852209	0.981306	-5.175781	283.300781
8092.854206	0.978245	10.760690	0.134076
8093.868228	0.750116	-134.667969	-114.550781
8093.872228	0.976300	-134.667969	-114.550781
8093.874229	0.974236	-134.667969	-114.550781
8093.876230	0.972795	10.700745	0.058329
8094.920855	0.340440	-23.730469	303.515625
8094.922856	0.656760	-23.730469	303.515625
8094.924855	0.931590	-23.730469	303.515625
8094.926856	0.977254	-23.730469	303.515625
8094.928856	0.974687	10.721554	0.051826
8095.956819	0.613761	-129.687500	-123.828125
8095.958821	0.905567	-129.687500	-123.828125
8095.960821	0.977830	-129.687500	-123.828125
8095.962821	0.975041	10.725453	0.052505
8096.987395	0.274690	-24.023437	315.332031
8096.989398	0.594630	-24.023437	315.332031
8096.991397	0.892452	-24.023437	315.332031
8096.995396	0.975561	-24.023437	315.332031
8096.997397	0.973807	10.711877	0.054128
8098.048002	0.961873	-132.617187	-126.953125
8098.050003	0.976363	-132.617187	-126.953125
8098.052005	0.974237	10.716609	0.049614
8099.054597	0.398253	-14.062500	315.820312
8099.056598	0.410894	-14.062500	315.820312
8099.058599	0.956576	-14.062500	315.820312
8099.060597	0.976699	-14.062500	315.820312
8099.062598	0.974409	10.718497	0.052011
8100.135550	0.739890	-135.839844	-117.285156
8100.137550	0.965546	-135.839844	-117.285156
8100.139552	0.976915	-135.839844	-117.285156
8100.141552	0.974707	10.721776	0.052061
8101.123607	0.562984	22.851562	311.425781
8101.125608	0.868074	22.851562	311.425781
8101.127608	0.979016	22.851562	311.425781
8101.129607	0.976023	10.736248	0.082651
8102.217657	0.470456	-145.703125	-112.109375
8102.223658	0.978109	-145.703125	-112.109375
8102.225660	0.975996	-145.703125	-112.109375
8102.227660	0.974746	10.722201	0.059536
8103.195666	0.562207	32.910156	299.609375
8103.197667	0.867421	32.910156	299.609375
8103.199668	0.979570	32.910156	299.609375
8103.201666	0.976675	10.743426	0.079010
8104.297616	0.583889	-153.417969	-106.738281
8104.299616	0.884392	-153.417969	-106.738281
8104.301618	0.889067	-153.417969	-106.738281
8104.303617	0.978548	10.764031	0.062443
8105.273671	0.693081	62.597656	293.261719
8105.275673	0.949013	62.597656	293.261719
8105.277672	0.976975	62.597656	293.261719
8105.279673	0.974638	10.721013	0.729371
8106.375782	0.659316	-154.882812	-100.878906
8106.377787	0.933022	-154.882812	-100.878906
8106.379786	0.977453	-154.882812	-100.878906
8106.381786	0.974890	10.723787	0.057598
8107.354341	0.831406	64.648437	285.156250
8107.356343	0.977808	64.648437	285.156250
8107.358343	0.975852	10.734369	0.040775
8108.450385	0.492075	-157.324219	-97.460937
8108.454386	0.977301	-157.324219	-97.460937
8108.458385	0.975037	-157.324219	-97.460937
8108.460388	0.973842	10.712266	0.059081
8109.432402	0.653138	68.164062	280.078125
8109.434403	0.929502	68.164062	280.078125
8109.436403	0.977106	68.164062	280.078125
8109.438403	0.974592	10.720517	0.042377
8110.526468	0.400123	-157.128906	-94.335937
8110.528469	0.713970	-157.128906	-94.335937
8110.530469	0.957197	-157.128906	-94.335937
8110.532470	0.976594	-157.128906	-94.335937
8110.534469	0.974395	10.718346	0.061357
8111.511013	0.310618	68.847656	277.734375
8111.513014	0.628404	68.847656	277.734375
8111.515013	0.915120	68.847656	277.734375
8111.517013	0.977640	68.847656	277.734375
8111.519014	0.974974	10.724718	0.040304
8112.603034	0.296889	-156.640625	-91.601562
8112.605033	0.615370	-156.640625	-91.601562
8112.607036	0.906856	-156.640625	-91.601562
8112.609035	0.978127	-156.640625	-91.601562
8112.611035	0.975288	10.728165	0.063310
8113.589075	0.533546	71.582031	278.515625
8113.591077	0.842452	71.582031	278.515625
8113.593079	0.979807	71.582031	278.515625
8113.595077	0.977356	10.750915	0.041659
8114.679161	0.377417	-156.542969	-91.503906
8114.681164	0.692064	-156.542969	-91.503906
8114.683164	0.948628	-156.542969	-91.503906
8114.685163	0.976843	-156.542969	-91.503906
8114.687164	0.974539	10.719933	0.063364
8115.665178	0.522832	64.355469	279.785156
8115.667181	0.832610	64.355469	279.785156
8115.669181	0.978800	64.355469	279.785156
8115.671180	0.976526	10.741787	0.044216
8116.759174	0.579650	-157.519531	-93.554687
8116.761177	0.881231	-157.519531	-93.554687
8116.763175	0.978644	-157.519531	-93.554687
8116.765176	0.975776	10.733536	0.188230
8117.741216	0.422652	47.460937	278.613281
8117.743218	0.435152	47.460937	278.613281
8117.745216	0.963964	47.460937	278.613281
8117.747219	0.976411	47.460937	278.613281
8117.749217	0.974186	10.716051	0.041237
8118.842247	0.853492	-158.496094	-96.582031
8118.844248	0.979735	-158.496094	-96.582031
8118.846250	0.976943	10.746368	0.058763
8119.819224	0.633030	67.675781	289.160156
8119.821226	0.917812	67.675781	289.160156
8119.823226	0.977499	67.675781	289.160156
8119.825224	0.974877	10.723646	0.040446
8120.917288	0.363658	-156.542969	-100.000000
8120.919290	0.679004	-156.542969	-100.000000
8120.921292	0.942917	-156.542969	-100.000000
8120.923291	0.977217	-156.542969	-100.000000
8120.925290	0.974858	10.723433	0.064651
8121.898207	0.831636	58.007812	298.242187
8121.902210	0.976336	58.007812	298.242187
8121.904214	0.974547	10.720021	0.043601
8122.996261	0.405176	-153.613281	-105.273437
8122.998261	0.718829	-153.613281	-105.273437
8123.000262	0.959135	-153.613281	-105.273437
8123.002261	0.977084	-153.613281	-105.273437
8123.004262	0.974811	10.722919	0.062994
8123.973261	0.253585	42.285156	308.789062
8123.975264	0.267268	42.285156	308.789062
8123.977263	0.877396	42.285156	308.789062
8123.979262	0.979143	42.285156	308.789062
8123.981264	0.976201	10.738207	0.046090
8125.075289	0.849089	-147.363281	-110.644531
8125.077292	0.978280	-147.363281	-110.644531
8125.079293	0.975738	10.733119	0.057078
8126.053871	0.396083	20.703125	318.652344
8126.055873	0.710009	20.703125	318.652344
8126.057873	0.955460	20.703125	318.652344
8126.059874	0.976380	20.703125	318.652344
8126.063871	0.972648	10.699123	0.046943
8127.143900	0.473706	-138.378906	-115.332031
8127.147904	0.974403	-138.378906	-115.332031
8127.149905	0.975895	-138.378906	-115.332031
8127.151907	0.973854	10.712391	0.053602
8128.141963	0.421245	-4.003906	326.367187
8128.145964	0.963623	-4.003906	326.367187
8128.147966	0.976421	-4.003906	326.367187
8128.149965	0.974295	10.717247	0.048517
8129.210066	0.432329	-132.226562	-119.238281
8129.212067	0.745078	-132.226562	-119.238281
8129.214066	0.966516	-132.226562	-119.238281
8129.216067	0.976188	-132.226562	-119.238281
8129.218067	0.973970	10.713675	0.053809
8130.230226	1.341961	-21.777344	326.171875
8130.232226	0.856714	-21.777344	326.171875
8130.234228	0.979847	-21.777344	326.171875
8130.238225	0.975238	10.727615	0.050241
8131.278281	0.631239	-128.906250	-117.089844
8131.280282	0.916717	-128.906250	-117.089844
8131.282281	0.977417	-128.906250	-117.089844
8131.284284	0.974753	10.722281	0.052871
8132.316383	0.434996	-28.320312	315.917969
8132.318386	0.747693	-28.320312	315.917969
8132.320387	0.967392	-28.320312	315.917969
8132.322386	0.976313	-28.320312	315.917969
8132.326386	0.972739	10.700134	0.052415
8133.350375	0.556591	-132.812500	-109.179687
8133.352377	0.569068	-132.812500	-109.179687
8133.354377	0.979270	-132.812500	-109.179687
8133.356377	0.976341	10.739748	0.060022
8134.398417	0.390381	-7.519531	301.464844
8134.400419	0.704552	-7.519531	301.464844
8134.402418	0.953692	-7.519531	301.464844
8134.404418	0.976881	-7.519531	301.464844
8134.406419	0.974611	10.720721	0.049205
8135.424459	0.388940	-138.867187	-96.386719
8135.426458	0.703046	-138.867187	-96.386719
8135.428461	0.953288	-138.867187	-96.386719
8135.430461	0.955576	-138.867187	-96.386719
8135.432462	0.974670	10.721368	0.058035
8136.474490	0.539484	10.839844	283.398437
8136.476492	0.847860	10.839844	283.398437
8136.478491	0.979780	10.839844	283.398437
8136.480492	0.979751	10.777263	0.045844
8137.508620	0.522770	-148.925781	-89.843750
8137.510622	0.832561	-148.925781	-89.843750
8137.512620	0.977761	-148.925781	-89.843750
8137.514621	0.975714	10.732854	0.059899
8138.542693	0.497679	26.464844	272.656250
8138.544696	0.808575	26.464844	272.656250
8138.546696	0.976740	26.464844	272.656250
8138.548695	0.975923	10.735149	0.044071
8139.598676	0.614644	-155.371094	-86.132812
8139.600676	0.906342	-155.371094	-86.132812
8139.602677	0.978372	-155.371094	-86.132812
8139.604677	0.975529	10.730824	0.354257
8140.607250	0.443102	38.183594	271.386719
8140.609251	0.755500	38.183594	271.386719
8140.611253	0.969617	38.183594	271.386719
8140.613251	0.976819	38.183594	271.386719
8140.617251	0.973226	10.705486	0.044161
8141.683815	0.496591	-159.960937	-87.792969
8141.685816	0.807603	-159.960937	-87.792969
8141.687817	0.977112	-159.960937	-87.792969
8141.689817	0.976379	10.740165	0.059958
8142.680781	0.266249	45.117187	279.003906
8142.682785	0.586546	45.117187	279.003906
8142.684784	0.886466	45.117187	279.003906
8142.686784	0.978847	45.117187	279.003906
8142.688783	0.975872	10.734591	0.040910
8143.767802	0.440466	-158.789062	-89.160156
8143.769803	0.753044	-158.789062	-89.160156
8143.771804	0.968852	-158.789062	-89.160156
8143.773803	0.976585	-158.789062	-89.160156
8143.775803	0.974416	10.718576	0.061433
8144.753864	0.513015	63.476562	291.015625
8144.755867	0.823292	63.476562	291.015625
8144.757866	0.977574	63.476562	291.015625
8144.759867	0.975869	10.734564	0.041424
8145.847891	0.493692	-158.203125	-92.968750
8145.849893	0.804793	-158.203125	-92.968750
8145.851893	0.976909	-158.203125	-92.968750
8145.855889	0.974542	10.719968	0.063524
8146.827947	0.586932	44.628906	296.777344
8146.829951	0.886676	44.628906	296.777344
8146.831948	0.978398	44.628906	296.777344
8146.833950	0.975485	10.730336	0.203555
8147.928577	0.641464	-154.199219	-93.359375
8147.930579	0.922992	-154.199219	-93.359375
8147.932580	0.977515	-154.199219	-93.359375
8147.934579	0.974779	10.722573	0.060723
8148.906722	0.756718	47.558594	303.515625
8148.908724	0.968797	47.558594	303.515625
8148.910725	0.975683	47.558594	303.515625
8148.912725	0.973507	10.708579	0.040923
8150.004771	0.487566	-154.492187	-97.753906
8150.006772	0.798661	-154.492187	-97.753906
8150.008771	0.975618	-154.492187	-97.753906
8150.010772	0.975623	10.731852	0.057779
8150.988792	0.976065	37.011719	305.175781
8150.990793	0.975604	37.011719	305.175781
8150.996791	0.971152	10.682675	0.039128
8152.087416	0.915379	-156.054687	-99.121094
8152.089422	0.977488	-156.054687	-99.121094
8152.093418	0.972937	10.702305	0.060576
8153.059955	0.336316	32.031250	305.078125
8153.061956	0.652778	32.031250	305.078125
8153.063958	0.929357	32.031250	305.078125
8153.065958	0.977313	32.031250	305.078125
8153.067960	0.974783	10.722609	0.044138
8154.161980	0.531335	-154.687500	-94.628906
8154.163984	0.840437	-154.687500	-94.628906
8154.165982	0.979040	-154.687500	-94.628906
8154.167983	0.976694	10.743639	0.062740
8155.138026	0.558434	42.285156	303.808594
8155.140029	0.864098	42.285156	303.808594
8155.142028	0.978024	42.285156	303.808594
8155.144027	0.975206	10.727262	0.058318
8156.238665	0.532085	-156.250000	-92.285156
8156.240667	0.841122	-156.250000	-92.285156
8156.242668	0.979980	-156.250000	-92.285156
8156.244666	0.977420	10.751616	0.060678
8157.216687	0.784449	39.941406	296.972656
8157.218689	0.974659	39.941406	296.972656
8157.220691	0.975804	39.941406	296.972656
8157.224689	0.972306	10.695366	0.040554
8158.313672	0.264229	-157.128906	-88.281250
8158.315675	0.584734	-157.128906	-88.281250
8158.317676	0.885055	-157.128906	-88.281250
8158.319673	0.978581	-157.128906	-88.281250
8158.321674	0.975644	10.732082	0.060862
8159.297626	0.494596	65.722656	294.140625
8159.299628	0.805596	65.722656	294.140625
8159.303626	0.976575	65.722656	294.140625
8159.305629	0.974697	10.721669	0.039795
8160.389637	0.560890	-158.105469	-85.156250
8160.391639	0.866404	-158.105469	-85.156250
8160.393639	0.979574	-158.105469	-85.156250
8160.395639	0.979550	10.775046	0.096139
8161.379611	0.364016	52.148437	284.277344
8161.381614	0.679263	52.148437	284.277344
8161.383613	0.942575	52.148437	284.277344
8161.385613	0.976553	52.148437	284.277344
8161.387614	0.974163	10.715794	0.039661
8162.457644	0.325089	-159.667969	-83.203125
8162.459647	0.642088	-159.667969	-83.203125
8162.461647	0.923086	-159.667969	-83.203125
8162.463645	0.976943	-159.667969	-83.203125
8162.465645	0.974397	10.718364	0.063124
8163.466248	1.253360	42.578125	279.492187
8163.468251	0.716325	42.578125	279.492187
8163.470252	0.957802	42.578125	279.492187
8163.472257	0.976388	42.578125	279.492187
8163.474261	0.974207	10.716281	0.039788
8164.530297	0.818141	-156.152344	-83.203125
8164.532299	0.977605	-156.152344	-83.203125
8164.534301	0.976167	10.737834	0.058190
8165.552857	0.353573	19.238281	279.980469
8165.554861	0.669214	19.238281	279.980469
8165.556860	0.938063	19.238281	279.980469
8165.558861	0.977241	19.238281	279.980469
8165.560859	0.974812	10.722928	0.043693
8166.598867	0.756001	-145.410156	-83.593750
8166.600869	0.969885	-145.410156	-83.593750
8166.602870	0.977075	-145.410156	-83.593750
8166.604870	0.974936	10.724301	0.057248
8167.642882	0.680253	14.062500	294.921875
8167.644885	0.943387	14.062500	294.921875
8167.646887	0.976965	14.062500	294.921875
8167.648889	0.974576	10.720331	0.671550
8168.668865	0.749936	-139.062500	-91.699219
8168.670865	0.967693	-139.062500	-91.699219
8168.672866	0.976223	-139.062500	-91.699219
8168.674865	0.974155	10.715705	0.055632
8169.720918	0.493150	-17.480469	308.496094
8169.722922	0.804256	-17.480469	308.496094
8169.724920	0.976332	-17.480469	308.496094
8169.726920	0.975857	10.734431	0.048830
8170.742943	0.256773	-137.988281	-106.640625
8170.744947	0.577556	-137.988281	-106.640625
8170.746948	0.879946	-137.988281	-106.640625
8170.748947	0.979157	-137.988281	-106.640625
8170.750947	0.976151	10.737665	0.055883
8171.796999	0.561537	-35.546875	324.316406
8171.801001	0.979638	-35.546875	324.316406
8171.803002	0.976607	-35.546875	324.316406
8171.807000	0.973824	10.712062	0.083017
8172.825979	0.291820	-131.738281	-112.109375
8172.827981	0.610698	-131.738281	-112.109375
8172.829983	0.903486	-131.738281	-112.109375
8172.831982	0.977834	-131.738281	-112.109375
8172.833981	0.974913	10.724045	0.051501
8173.868028	0.639811	-34.960937	336.425781
8173.870031	0.921984	-34.960937	336.425781
8173.872029	0.977270	-34.960937	336.425781
8173.874031	0.974695	10.721642	0.050947
8174.912600	0.328510	-132.031250	-113.574219
8174.914603	0.645290	-132.031250	-113.574219
8174.916601	0.925102	-132.031250	-113.574219
8174.920600	0.974389	-132.031250	-113.574219
8174.922601	0.974316	10.717478	0.050095
8175.936638	0.660298	-22.460937	341.796875
8175.940638	0.976881	-22.460937	341.796875
8175.942638	0.974335	-22.460937	341.796875
8175.944642	0.972698	10.699673	0.051851
8176.999172	0.358807	-135.644531	-111.425781
8177.001174	0.674201	-135.644531	-111.425781
8177.005171	0.977857	-135.644531	-111.425781
8177.007174	0.975347	-135.644531	-111.425781
8177.009174	0.973865	10.712515	0.052761
8178.007247	0.830412	5.078125	342.968750
8178.009248	0.978161	5.078125	342.968750
8178.013246	0.974252	10.716768	0.048973
8179.085231	0.547786	-144.140625	-110.644531
8179.087233	0.855027	-144.140625	-110.644531
8179.089237	0.978639	-144.140625	-110.644531
8179.091234	0.975913	10.735043	0.053794
8180.079237	0.581818	-0.976562	332.812500
8180.081239	0.883142	-0.976562	332.812500
8180.083238	0.980143	-0.976562	332.812500
8180.085239	0.977047	10.747520	0.047653
8181.165853	0.363605	-146.777344	-103.320312
8181.167855	0.678834	-146.777344	-103.320312
8181.169856	0.942382	-146.777344	-103.320312
8181.171856	0.976491	-146.777344	-103.320312
8181.173856	0.974109	10.715199	0.056463
8182.151870	0.510309	10.058594	326.171875
8182.153873	0.820650	10.058594	326.171875
8182.155872	0.977058	10.058594	326.171875
8182.157871	0.975531	10.730843	0.043984
8183.247810	0.389268	-149.218750	-98.046875
8183.249812	0.703346	-149.218750	-98.046875
8183.251812	0.953196	-149.218750	-98.046875
8183.255809	0.974522	-149.218750	-98.046875
8183.257811	0.972964	10.702606	0.057112
8184.227867	0.483922	27.636719	324.511719
8184.229873	0.795069	27.636719	324.511719
8184.231872	0.975805	27.636719	324.511719
8184.233870	0.976151	10.737657	0.042448
8185.325918	0.615978	-154.101562	-98.730469
8185.327919	0.906991	-154.101562	-98.730469
8185.329919	0.977728	-154.101562	-98.730469
8185.331920	0.974874	10.723619	0.057850
8186.306513	0.553400	23.242187	320.410156
8186.310510	0.979014	23.242187	320.410156
8186.312513	0.976302	23.242187	320.410156
8186.314512	0.974559	10.720154	0.042603
8187.406992	0.889763	-152.050781	-94.238281
8187.408995	0.978971	-152.050781	-94.238281
8187.410993	0.975920	10.735123	0.058928
8188.383060	0.454865	30.078125	321.679687
8188.385063	0.469803	30.078125	321.679687
8188.387061	0.970981	30.078125	321.679687
8188.389063	0.975573	30.078125	321.679687
8188.391064	0.973511	10.708624	0.042723
8189.481080	0.420187	-154.492187	-96.679687
8189.483082	0.733230	-154.492187	-96.679687
8189.485082	0.963486	-154.492187	-96.679687
8189.487085	0.976670	-154.492187	-96.679687
8189.489086	0.974481	10.719286	0.059666
8190.461155	0.596319	29.980469	324.023437
8190.463158	0.893418	29.980469	324.023437
8190.465157	0.977999	29.980469	324.023437
8190.467159	0.975164	10.726810	0.251172
8191.559177	0.562894	-153.320312	-98.144531
8191.561179	0.868043	-153.320312	-98.144531
8191.563179	0.979383	-153.320312	-98.144531
8191.565180	0.976395	10.740342	0.104404
8192.539779	0.740594	33.007812	329.882812
8192.541781	0.965175	33.007812	329.882812
8192.543781	0.976080	33.007812	329.882812
8192.545781	0.973947	10.713419	0.042748
8193.635837	0.481468	-150.781250	-100.000000
8193.637840	0.792729	-150.781250	-100.000000
8193.639842	0.975322	-150.781250	-100.000000
8193.641843	0.975948	10.735433	0.056024
8194.617919	0.326922	8.398437	331.738281
8194.619920	0.643793	8.398437	331.738281
8194.621920	0.924421	8.398437	331.738281
8194.623921	0.977720	8.398437	331.738281
8194.625920	0.975059	10.725649	0.046395
8195.712909	0.703859	-148.242187	-104.980469
8195.714907	0.953268	-148.242187	-104.980469
8195.716909	0.976620	-148.242187	-104.980469
8195.718908	0.974382	10.718204	0.054069
8196.701890	0.828761	3.222656	340.429687
8196.703892	0.977242	3.222656	340.429687
8196.707890	0.973351	10.706861	0.046388
8197.785942	0.693656	-144.238281	-109.082031
8197.787942	0.948951	-144.238281	-109.082031
8197.789943	0.976532	-144.238281	-109.082031
8197.791945	0.974175	10.715927	0.747799
8198.781956	0.400115	-19.433594	343.457031
8198.783959	0.713763	-19.433594	343.457031
8198.785958	0.957107	-19.433594	343.457031
8198.787959	0.976653	-19.433594	343.457031
8198.789958	0.974476	10.719233	0.049558
8199.852872	0.285087	-137.695312	-110.546875
8199.854873	0.604407	-137.695312	-110.546875
8199.856874	0.899284	-137.695312	-110.546875
8199.858873	0.978335	-137.695312	-110.546875
8199.860872	0.975413	10.729548	0.053214
8200.866841	0.321278	-20.019531	349.804687
8200.868844	0.638475	-20.019531	349.804687
8200.870843	0.921191	-20.019531	349.804687
8200.872844	0.977477	-20.019531	349.804687
8200.874843	0.974728	10.722006	0.050694
8201.922839	0.445342	-134.277344	-110.449219
8201.924848	0.757667	-134.277344	-110.449219
8201.928849	0.976049	-134.277344	-110.449219
8201.932848	0.972417	-134.277344	-110.449219
8201.934848	0.971336	10.684696	0.050727
8202.954874	0.338053	-24.218750	347.558594
8202.956875	0.654447	-24.218750	347.558594
8202.958877	0.930207	-24.218750	347.558594
8202.960875	0.977022	-24.218750	347.558594
8202.962876	0.974575	10.720323	0.048947
8203.992969	0.462761	-134.765625	-107.714844
8203.994971	0.774590	-134.765625	-107.714844
8203.996969	0.972776	-134.765625	-107.714844
8203.998970	0.976055	-134.765625	-107.714844
8204.002968	0.972647	10.699115	0.050493
8205.041000	0.618759	-17.578125	339.355469
8205.043002	0.908767	-17.578125	339.355469
8205.045002	0.977345	-17.578125	339.355469
8205.047002	0.974595	10.720544	0.359534
8206.067059	0.698282	-134.472656	-96.289062
8206.069058	0.951270	-134.472656	-96.289062
8206.071059	0.976960	-134.472656	-96.289062
8206.073061	0.974626	10.720889	0.051239
8207.117137	0.371946	-17.480469	319.628906
8207.119140	0.686802	-17.480469	319.628906
8207.121141	0.946588	-17.480469	319.628906
8207.123141	0.977175	-17.480469	319.628906
8207.127139	0.973392	10.707312	0.050646
8208.143180	0.449886	-145.214844	-91.113281
8208.145179	0.762084	-145.214844	-91.113281
8208.147180	0.971025	-145.214844	-91.113281
8208.149180	0.976773	-145.214844	-91.113281
8208.151179	0.974679	10.721474	0.055780
8209.196116	0.811997	-12.109375	301.855469
8209.198117	0.976731	-12.109375	301.855469
8209.200119	0.975606	10.731667	0.044421
8210.224670	0.403358	-151.464844	-82.714844
8210.226674	0.716962	-151.464844	-82.714844
8210.228674	0.957968	-151.464844	-82.714844
8210.230672	0.976419	-151.464844	-82.714844
8210.232672	0.974091	10.715005	0.058350
8211.265325	0.279462	20.898437	296.875000
8211.267326	0.599039	20.898437	296.875000
8211.269325	0.895472	20.898437	296.875000
8211.271325	0.978126	20.898437	296.875000
8211.273327	0.975224	10.727466	0.043696
8212.311370	0.531273	-153.613281	-76.074219
8212.313371	0.840331	-153.613281	-76.074219
8212.315371	0.979049	-153.613281	-76.074219
8212.317370	0.976659	10.743249	0.056940
8213.333322	0.449962	37.402344	294.042969
8213.335325	0.762146	37.402344	294.042969
8213.337325	0.970281	37.402344	294.042969
8213.339324	0.975929	37.402344	294.042969
8213.341324	0.973903	10.712931	0.043717
8214.399286	0.907101	-157.324219	-74.609375
8214.401289	0.911291	-157.324219	-74.609375
8214.403288	0.975022	10.725241	0.057881
8215.407340	0.899590	46.777344	295.605469
8215.409343	0.977826	46.777344	295.605469
8215.411341	0.974958	10.724541	0.040832
8216.479347	0.497828	-161.621094	-76.953125
8216.483351	0.977371	-161.621094	-76.953125
8216.485352	0.976604	-161.621094	-76.953125
8216.487352	0.974762	10.722379	0.059919
8217.479371	0.593407	42.578125	298.632812
8217.481373	0.891364	42.578125	298.632812
8217.483372	0.978477	42.578125	298.632812
8217.485373	0.975518	10.730700	0.040034
8218.561923	0.461388	-162.207031	-78.027344
8218.563923	0.773238	-162.207031	-78.027344
8218.565925	0.972433	-162.207031	-78.027344
8218.567923	0.975965	-162.207031	-78.027344
8218.569923	0.973926	10.713188	0.061146
8219.551986	0.439213	55.175781	306.835937
8219.553987	0.751693	55.175781	306.835937
8219.555987	0.968384	55.175781	306.835937
8219.557987	0.976530	55.175781	306.835937
8219.559988	0.974361	10.717974	0.039837
8220.640101	0.375662	-161.425781	-79.492187
8220.642101	0.690399	-161.425781	-79.492187
8220.644102	0.947946	-161.425781	-79.492187
8220.646101	0.976981	-161.425781	-79.492187
8220.648102	0.974703	10.721731	0.063165
8221.628162	0.441712	52.050781	309.667969
8221.630165	0.754077	52.050781	309.667969
8221.632164	0.968743	52.050781	309.667969
8221.634163	0.976259	52.050781	309.667969
8221.636163	0.974121	10.715333	0.040229
8222.720208	0.514177	-162.109375	-81.152344
8222.722209	0.824477	-162.109375	-81.152344
8222.724209	0.978068	-162.109375	-81.152344
8222.726209	0.976383	10.740210	0.057876
8223.708293	0.582027	56.347656	312.890625
8223.710294	0.882960	56.347656	312.890625
8223.712295	0.978087	56.347656	312.890625
8223.714293	0.975227	10.727501	0.176303
8224.796406	0.440869	-161.328125	-80.078125
8224.798408	0.753356	-161.328125	-80.078125
8224.800409	0.968717	-161.328125	-80.078125
8224.802410	0.976257	-161.328125	-80.078125
8224.804410	0.974219	10.716413	0.060316
8225.784394	0.412810	50.878906	311.328125
8225.786396	0.726028	50.878906	311.328125
8225.790394	0.976309	50.878906	311.328125
8225.792399	0.974153	50.878906	311.328125
8225.794403	0.972565	10.698219	0.040037
8226.874489	0.740860	-160.546875	-77.539062
8226.876492	0.965683	-160.546875	-77.539062
8226.878492	0.976617	-160.546875	-77.539062
8226.880491	0.974484	10.719321	0.059948
8227.864555	0.397273	47.265625	308.398437
8227.866557	0.711070	47.265625	308.398437
8227.868558	0.956086	47.265625	308.398437
8227.870557	0.976685	47.265625	308.398437
8227.872556	0.974478	10.719258	0.040443
8228.948641	0.503647	-164.648437	-79.199219
8228.950644	0.814332	-164.648437	-79.199219
8228.952642	0.977739	-164.648437	-79.199219
8228.954642	0.976547	10.742017	0.061321
8229.945599	0.439635	52.734375	306.250000
8229.947599	0.452736	52.734375	306.250000
8229.949600	0.968572	52.734375	306.250000
8229.951600	0.976623	52.734375	306.250000
8229.953601	0.974496	10.719454	0.040567
8231.019656	0.337070	-161.816406	-76.074219
8231.021657	0.653486	-161.816406	-76.074219
8231.025657	0.933189	-161.816406	-76.074219
8231.027659	0.974750	-161.816406	-76.074219
8231.029660	0.973137	10.704503	0.060596
