time (s)	coil I (A)	last det (V)	int current (uC)
8382.596845	0.269010	97.656250	263.769531
8382.598846	0.589509	97.656250	263.769531
8382.600845	0.889292	97.656250	263.769531
8382.602845	0.980075	97.656250	263.769531
8382.604845	0.976963	10.746591	0.025784
8383.630937	0.655432	-102.148437	-131.933594
8383.634937	0.978077	-102.148437	-131.933594
8383.636940	0.975543	-102.148437	-131.933594
8383.638939	0.973940	10.713339	0.027789
8384.674939	0.335258	104.687500	259.960937
8384.676941	0.652078	104.687500	259.960937
8384.680942	0.979073	104.687500	259.960937
8384.682942	0.976312	104.687500	259.960937
8384.684941	0.974857	10.723424	0.026778
8385.706991	0.961899	-102.929687	-130.273437
8385.708993	0.977594	-102.929687	-130.273437
8385.712991	0.974086	10.714943	0.025157
8386.752967	0.305187	95.703125	254.492187
8386.754968	0.623571	95.703125	254.492187
8386.756969	0.912518	95.703125	254.492187
8386.758968	0.978594	95.703125	254.492187
8386.760969	0.975749	10.733234	0.028270
8387.783018	0.913712	-103.906250	-123.339844
8387.785019	0.978700	-103.906250	-123.339844
8387.787019	0.975859	10.734448	0.025853
8388.832987	0.435028	100.390625	243.457031
8388.834989	0.747920	100.390625	243.457031
8388.836988	0.968161	100.390625	243.457031
8388.838989	0.977446	100.390625	243.457031
8388.840990	0.975235	10.727580	0.026713
8389.858994	0.588349	-109.179687	-113.183594
8389.860995	0.888133	-109.179687	-113.183594
8389.862996	0.979190	-109.179687	-113.183594
8389.864995	0.976276	10.739039	0.026838
8390.903071	0.446365	95.312500	235.058594
8390.905074	0.758931	95.312500	235.058594
8390.907072	0.970589	95.312500	235.058594
8390.909073	0.977011	95.312500	235.058594
8390.911077	0.975045	10.725498	0.028904
8391.947061	0.449330	-116.308594	-107.324219
8391.949063	0.761841	-116.308594	-107.324219
8391.951063	0.971238	-116.308594	-107.324219
8391.953063	0.977079	-116.308594	-107.324219
8391.955063	0.974952	10.724470	0.024927
8392.973147	0.953998	140.820312	227.734375
8392.975150	0.977758	140.820312	227.734375
8392.977149	0.975393	10.729326	0.027690
8394.039756	0.792132	-119.824219	-110.058594
8394.041755	0.976026	-119.824219	-110.058594
8394.043757	0.976755	10.744304	0.029292
8395.033778	0.509034	159.765625	241.113281
8395.035781	0.819779	159.765625	241.113281
8395.037782	0.978686	159.765625	241.113281
8395.039779	0.977118	10.748301	0.022485
8396.123812	0.426585	-120.312500	-123.828125
8396.125814	0.739775	-120.312500	-123.828125
8396.127815	0.965607	-120.312500	-123.828125
8396.129816	0.976825	-120.312500	-123.828125
8396.131815	0.974709	10.721802	0.034587
8397.105880	0.831112	128.613281	270.019531
8397.107881	0.978453	128.613281	270.019531
8397.109880	0.976420	10.740617	0.018954
8398.196491	0.442919	-115.429687	-139.453125
8398.198492	0.755690	-115.429687	-139.453125
8398.200491	0.969661	-115.429687	-139.453125
8398.202491	0.976856	-115.429687	-139.453125
8398.204492	0.974834	10.723176	0.036804
8399.199113	0.541749	128.125000	270.507812
8399.201113	0.849910	128.125000	270.507812
8399.203115	0.979085	128.125000	270.507812
8399.205113	0.976395	10.740342	0.019551
8400.253156	0.267922	-107.226562	-144.726562
8400.257156	0.888062	-107.226562	-144.726562
8400.261157	0.975946	-107.226562	-144.726562
8400.263158	0.974375	10.718124	0.036512
8401.293234	0.468892	97.949219	262.890625
8401.295238	0.780733	97.949219	262.890625
8401.297251	0.976364	97.949219	262.890625
8401.299251	0.978504	97.949219	262.890625
8401.301252	0.976424	10.740662	0.023659
8402.323334	0.788825	-108.886719	-131.250000
8402.325335	0.977075	-108.886719	-131.250000
8402.327335	0.975079	10.725870	0.028822
8403.373289	0.438740	91.894531	241.015625
8403.375292	0.751503	91.894531	241.015625
8403.377293	0.969049	91.894531	241.015625
8403.379293	0.977243	91.894531	241.015625
8403.381291	0.975038	10.725418	0.028001
8404.398241	0.257746	-112.109375	-113.183594
8404.400243	0.578828	-112.109375	-113.183594
8404.402242	0.880912	-112.109375	-113.183594
8404.404243	0.979570	-112.109375	-113.183594
8404.406242	0.976514	10.741653	0.028005
8405.438261	0.282805	129.101562	222.753906
8405.440263	0.602385	129.101562	222.753906
8405.442261	0.898120	129.101562	222.753906
8405.444263	0.978771	129.101562	222.753906
8405.446261	0.975833	10.734165	0.029566
8406.496750	0.478645	-122.363281	-109.960937
8406.498754	0.790251	-122.363281	-109.960937
8406.500759	0.975884	-122.363281	-109.960937
8406.502759	0.976777	10.744552	0.028670
8407.495775	0.331666	177.441406	228.222656
8407.497775	0.648666	177.441406	228.222656
8407.499777	0.927328	177.441406	228.222656
8407.501777	0.930902	177.441406	228.222656
8407.503777	0.975242	10.727660	0.024512
8408.585865	0.255788	-119.042969	-124.707031
8408.587869	0.576958	-119.042969	-124.707031
8408.589868	0.879575	-119.042969	-124.707031
8408.591868	0.980198	-119.042969	-124.707031
8408.593867	0.977080	10.747884	0.033426
8409.567854	0.497921	134.179687	259.765625
8409.569858	0.809052	134.179687	259.765625
8409.571857	0.978203	134.179687	259.765625
8409.573859	0.977304	10.750348	0.021354
8410.664880	0.864242	-113.476562	-140.039062
8410.666884	0.980094	-113.476562	-140.039062
8410.668883	0.977158	10.748734	0.046246
8411.651277	0.351851	131.835937	267.578125
8411.653277	0.667847	131.835937	267.578125
8411.655277	0.937986	131.835937	267.578125
8411.657278	0.978203	131.835937	267.578125
8411.659280	0.975692	10.732615	0.021167
8412.727257	0.393657	-112.597656	-146.679687
8412.729259	0.707903	-112.597656	-146.679687
8412.731259	0.955705	-112.597656	-146.679687
8412.733259	0.977784	-112.597656	-146.679687
8412.735261	0.975548	10.731028	0.039330
8413.739751	0.518828	94.042969	274.414062
8413.741753	0.828916	94.042969	274.414062
8413.743753	0.978278	94.042969	274.414062
8413.745753	0.976305	10.739349	0.022410
8414.796707	0.708379	-102.929687	-149.414062
8414.798710	0.955575	-102.929687	-149.414062
8414.800708	0.977406	-102.929687	-149.414062
8414.802709	0.975107	10.726180	0.036762
8415.830707	0.828563	100.585937	262.988281
8415.832708	0.978505	100.585937	262.988281
8415.834711	0.976472	10.741193	0.023349
8416.866795	0.794764	-106.738281	-144.238281
8416.868795	0.975910	-106.738281	-144.238281
8416.870796	0.976408	10.740484	0.030064
8417.909387	0.338533	99.609375	251.953125
8417.911388	0.655067	99.609375	251.953125
8417.913388	0.931143	99.609375	251.953125
8417.915388	0.978166	99.609375	251.953125
8417.917387	0.975535	10.730886	0.029156
8418.937346	0.315098	-104.199219	-139.648437
8418.939346	0.632814	-104.199219	-139.648437
8418.941346	0.641839	-104.199219	-139.648437
8418.943345	0.978205	-104.199219	-139.648437
8418.945347	0.975562	10.731178	0.030223
8419.989377	0.461194	97.949219	245.312500
8419.991378	0.773350	97.949219	245.312500
8419.993378	0.973369	97.949219	245.312500
8419.995379	0.976997	97.949219	245.312500
8419.997379	0.974945	10.724399	0.027682
8421.017391	0.974785	-102.343750	-135.156250
8421.019392	0.978212	-102.343750	-135.156250
8421.021394	0.976195	10.738144	0.029198
8422.067400	0.348645	104.003906	240.332031
8422.069403	0.664864	104.003906	240.332031
8422.071404	0.936066	104.003906	240.332031
8422.073403	0.977578	104.003906	240.332031
8422.075404	0.975051	10.725560	0.028533
8423.091467	0.443234	-107.910156	-132.421875
8423.093468	0.755765	-107.910156	-132.421875
8423.095470	0.969969	-107.910156	-132.421875
8423.097468	0.977169	-107.910156	-132.421875
8423.099469	0.975100	10.726101	0.029211
8424.142387	0.324423	95.312500	241.699219
8424.144389	0.641679	95.312500	241.699219
8424.146390	0.923378	95.312500	241.699219
8424.148389	0.977955	95.312500	241.699219
8424.152388	0.973721	10.710928	0.028714
8425.168365	0.397684	-107.714844	-134.277344
8425.170368	0.711691	-107.714844	-134.277344
8425.172367	0.956429	-107.714844	-134.277344
8425.176365	0.974590	-107.714844	-134.277344
8425.178369	0.973129	10.704414	0.026811
8426.221293	0.517973	92.871094	244.042969
8426.223294	0.828119	92.871094	244.042969
8426.225293	0.978999	92.871094	244.042969
8426.227293	0.976943	10.746377	0.029978
8427.247389	0.364363	-101.562500	-139.550781
8427.249394	0.679807	-101.562500	-139.550781
8427.251392	0.943426	-101.562500	-139.550781
8427.255390	0.975036	-101.562500	-139.550781
8427.259389	0.973460	10.708065	0.029095
8428.297461	0.681483	75.683594	254.785156
8428.299463	0.944246	75.683594	254.785156
8428.301462	0.977566	75.683594	254.785156
8428.303463	0.975227	10.727501	0.028014
8429.326458	0.581984	-105.371094	-145.703125
8429.328459	0.883324	-105.371094	-145.703125
8429.330458	0.979574	-105.371094	-145.703125
8429.332461	0.976507	10.741573	0.032393
8430.371052	0.596572	104.589844	254.980469
8430.373054	0.893769	104.589844	254.980469
8430.375053	0.978146	104.589844	254.980469
8430.377053	0.975224	10.727466	0.228138
8431.409121	0.313002	-105.664062	-151.660156
8431.411122	0.630920	-105.664062	-151.660156
8431.413124	0.916832	-105.664062	-151.660156
8431.415123	0.977918	-105.664062	-151.660156
8431.417121	0.975195	10.727146	0.034321
8432.441726	0.781570	105.468750	263.183594
8432.443727	0.974821	105.468750	263.183594
8432.445727	0.977034	105.468750	263.183594
8432.447728	0.974961	10.724576	0.024016
8433.496267	0.511122	-110.351562	-153.417969
8433.498269	0.821806	-110.351562	-153.417969
8433.502268	0.975877	-110.351562	-153.417969
8433.504270	0.973893	10.712825	0.037341
8434.505230	0.561947	125.390625	262.890625
8434.507232	0.867534	125.390625	262.890625
8434.509230	0.980421	125.390625	262.890625
8434.511231	0.977435	10.751783	0.056269
8435.583315	0.287208	-114.453125	-148.828125
8435.585317	0.606523	-114.453125	-148.828125
8435.587318	0.900870	-114.453125	-148.828125
8435.591314	0.975428	-114.453125	-148.828125
8435.593316	0.973921	10.713126	0.038737
8436.573922	0.353959	161.230469	250.195312
8436.575924	0.669880	161.230469	250.195312
8436.577923	0.938766	161.230469	250.195312
8436.579923	0.977786	161.230469	250.195312
8436.581924	0.975287	10.728157	0.020950
8437.666008	0.514052	-119.140625	-137.304687
8437.670009	0.977605	-119.140625	-137.304687
8437.672010	0.975879	-119.140625	-137.304687
8437.674010	0.975784	10.733624	0.038558
8438.648007	0.264221	143.066406	240.234375
8438.650009	0.584794	143.066406	240.234375
8438.652009	0.885330	143.066406	240.234375
8438.654010	0.979244	143.066406	240.234375
8438.656009	0.976225	10.738473	0.025479
8439.739942	0.404758	-121.093750	-123.828125
8439.741948	0.718512	-121.093750	-123.828125
8439.743950	0.959874	-121.093750	-123.828125
8439.745952	0.977627	-121.093750	-123.828125
8439.747951	0.975358	10.728936	0.035284
8440.738530	0.515076	189.453125	210.058594
8440.740532	0.825396	189.453125	210.058594
8440.742531	0.978386	189.453125	210.058594
8440.744531	0.976569	10.742256	0.026695
8441.805064	0.683110	-118.847656	-116.894531
8441.807065	0.945022	-118.847656	-116.894531
8441.811063	0.975202	-118.847656	-116.894531
8441.813065	0.973718	10.710893	0.030986
8442.831124	0.444315	139.257812	210.156250
8442.833127	0.756720	139.257812	210.156250
8442.837124	0.976724	139.257812	210.156250
8442.839125	0.974635	139.257812	210.156250
8442.841126	0.973229	10.705523	0.030173
8443.867184	0.489585	-108.007812	-124.609375
8443.869188	0.800908	-108.007812	-124.609375
8443.871187	0.977536	-108.007812	-124.609375
8443.873192	0.977405	10.751455	0.026952
8444.915156	0.307921	106.835937	227.148437
8444.917158	0.626062	106.835937	227.148437
8444.919157	0.913876	106.835937	227.148437
8444.921158	0.978161	106.835937	227.148437
8444.923157	0.975286	10.728148	0.032623
8445.941198	0.713972	-105.175781	-142.480469
8445.943200	0.957397	-105.175781	-142.480469
8445.945201	0.977030	-105.175781	-142.480469
8445.947200	0.974860	10.723459	0.030638
8446.989784	0.475889	102.636719	247.753906
8446.991789	0.787547	102.636719	247.753906
8446.993789	0.975608	102.636719	247.753906
8446.995791	0.976809	102.636719	247.753906
8446.997792	0.974796	10.722759	0.028808
8448.025788	0.430233	-102.246094	-155.859375
8448.027789	0.743253	-102.246094	-155.859375
8448.029789	0.966483	-102.246094	-155.859375
8448.031792	0.976690	-102.246094	-155.859375
8448.033797	0.974575	10.720323	0.035770
8449.055792	0.488471	120.703125	257.031250
8449.057795	0.799779	120.703125	257.031250
8449.059795	0.977134	120.703125	257.031250
8449.061796	0.977132	10.748451	0.024669
8450.115911	0.286180	-108.984375	-155.761719
8450.117913	0.605490	-108.984375	-155.761719
8450.119914	0.900083	-108.984375	-155.761719
8450.123912	0.975259	-108.984375	-155.761719
8450.125913	0.973642	10.710060	0.039962
8451.118452	0.459970	120.996094	261.132812
8451.120454	0.771996	120.996094	261.132812
8451.122453	0.777745	120.996094	261.132812
8451.124453	0.977294	120.996094	261.132812
8451.126454	0.975221	10.727430	0.022810
8452.202514	0.320189	-111.718750	-149.414062
8452.206513	0.920922	-111.718750	-149.414062
8452.208515	0.978070	-111.718750	-149.414062
8452.210515	0.975144	10.726579	0.039844
8453.190534	0.621957	181.152344	239.160156
8453.192537	0.630681	181.152344	239.160156
8453.194536	0.978009	181.152344	239.160156
8453.196536	0.975312	10.728432	0.021232
8454.284514	0.434812	-118.945312	-138.769531
8454.286516	0.747646	-118.945312	-138.769531
8454.288518	0.967636	-118.945312	-138.769531
8454.290517	0.976791	-118.945312	-138.769531
8454.292517	0.974659	10.721252	0.039643
8455.267109	0.366263	184.179687	227.148437
8455.269112	0.681504	184.179687	227.148437
8455.271113	0.944013	184.179687	227.148437
8455.273112	0.977066	184.179687	227.148437
8455.275114	0.974655	10.721209	0.023985
8456.359153	0.520332	-116.894531	-131.640625
8456.361153	0.830313	-116.894531	-131.640625
8456.365154	0.976076	-116.894531	-131.640625
8456.367155	0.974262	10.716884	0.037143
8457.349198	0.572875	186.914062	215.234375
8457.351200	0.876708	186.914062	215.234375
8457.353202	0.982565	186.914062	215.234375
8457.357198	0.977740	10.755142	0.112435
8458.431279	0.449648	-118.945312	-125.000000
8458.433281	0.762038	-118.945312	-125.000000
8458.435282	0.970622	-118.945312	-125.000000
8458.437282	0.976340	-118.945312	-125.000000
8458.439281	0.974285	10.717132	0.034251
8459.431787	0.535897	183.300781	207.421875
8459.433790	0.844471	183.300781	207.421875
8459.435789	0.979049	183.300781	207.421875
8459.437790	0.976478	10.741255	0.027667
8460.503750	0.431375	-116.992187	-123.144531
8460.505754	0.744122	-116.992187	-123.144531
8460.507752	0.966625	-116.992187	-123.144531
8460.509754	0.976638	-116.992187	-123.144531
8460.511753	0.974551	10.720057	0.033141
8461.511802	0.250329	179.296875	203.125000
8461.513802	0.571519	179.296875	203.125000
8461.515803	0.875468	179.296875	203.125000
8461.517802	0.981504	179.296875	203.125000
8461.519803	0.978551	10.764058	0.030745
8462.581849	0.935193	-118.066406	-121.972656
8462.583851	0.977949	-118.066406	-121.972656
8462.585851	0.975416	10.729575	0.032655
8463.592398	0.632555	127.636719	209.765625
8463.594398	0.917730	127.636719	209.765625
8463.596399	0.921378	127.636719	209.765625
8463.598399	0.974813	10.722945	0.032335
8464.656403	0.721524	-112.011719	-123.632812
8464.658403	0.959975	-112.011719	-123.632812
8464.664401	0.973277	-112.011719	-123.632812
8464.666403	0.971967	10.691635	0.031541
8465.670490	0.614440	129.980469	208.691406
8465.672491	0.906080	129.980469	208.691406
8465.674491	0.977872	129.980469	208.691406
8465.676491	0.975080	10.725879	0.327278
8466.732530	0.557785	-115.136719	-123.730469
8466.734532	0.863685	-115.136719	-123.730469
8466.736531	0.978752	-115.136719	-123.730469
8466.738531	0.975850	10.734351	0.044594
8467.742543	0.371038	158.593750	204.785156
8467.746543	0.946085	158.593750	204.785156
8467.748545	0.977192	158.593750	204.785156
8467.750545	0.974862	10.723477	0.031441
8468.812626	0.454005	-115.039062	-125.781250
8468.814626	0.766133	-115.039062	-125.781250
8468.816627	0.971715	-115.039062	-125.781250
8468.818626	0.976549	-115.039062	-125.781250
8468.820626	0.974533	10.719861	0.033738
8469.818702	0.772583	149.609375	210.156250
8469.820705	0.972858	149.609375	210.156250
8469.822702	0.976481	149.609375	210.156250
8469.824704	0.974463	10.719090	0.028450
8470.893278	0.269249	-115.722656	-129.687500
8470.895281	0.589475	-115.722656	-129.687500
8470.897280	0.888759	-115.722656	-129.687500
8470.899280	0.979052	-115.722656	-129.687500
8470.901282	0.976008	10.736088	0.035219
8471.889314	0.385264	157.714844	215.332031
8471.891318	0.699756	157.714844	215.332031
8471.893318	0.952208	157.714844	215.332031
8471.895316	0.977488	157.714844	215.332031
8471.897317	0.975237	10.727607	0.028945
8472.975919	0.408023	-119.433594	-134.960937
8472.977921	0.721712	-119.433594	-134.960937
8472.979920	0.960095	-119.433594	-134.960937
8472.981922	0.976930	-119.433594	-134.960937
8472.983920	0.974788	10.722671	0.037569
8473.961958	0.476535	188.574219	218.945312
8473.963962	0.788082	188.574219	218.945312
8473.967961	0.977013	188.574219	218.945312
8473.969964	0.975137	10.726508	0.025074
8475.056052	0.388233	-118.359375	-144.238281
8475.058052	0.702646	-118.359375	-144.238281
8475.060058	0.953242	-118.359375	-144.238281
8475.062057	0.977287	-118.359375	-144.238281
8475.064059	0.975020	10.725224	0.039049
8476.040143	0.793171	191.894531	227.832031
8476.042139	0.976214	191.894531	227.832031
8476.044141	0.976819	10.745004	0.022376
8477.132658	0.538940	-112.597656	-155.761719
8477.134658	0.847418	-112.597656	-155.761719
8477.136660	0.979936	-112.597656	-155.761719
8477.138659	0.977309	10.750401	0.040669
8478.120657	0.754121	171.386719	238.183594
8478.122664	0.968789	171.386719	238.183594
8478.124669	0.976309	171.386719	238.183594
8478.126669	0.974227	10.716494	0.023081
8479.202733	0.787771	-112.402344	-163.671875
8479.204736	0.975007	-112.402344	-163.671875
8479.206735	0.976223	-112.402344	-163.671875
8479.208735	0.974320	10.717522	0.041663
8480.205307	0.317205	132.714844	246.191406
8480.207310	0.634690	132.714844	246.191406
8480.209310	0.919111	132.714844	246.191406
8480.211311	0.977921	132.714844	246.191406
8480.213309	0.975201	10.727208	0.026508
8481.267315	0.580307	-105.761719	-166.796875
8481.269317	0.881825	-105.761719	-166.796875
8481.271317	0.978872	-105.761719	-166.796875
8481.273317	0.975963	10.735592	0.040732
8482.295955	0.340599	106.738281	242.285156
8482.297957	0.657075	106.738281	242.285156
8482.299956	0.931696	106.738281	242.285156
8482.301956	0.977088	106.738281	242.285156
8482.303956	0.974610	10.720713	0.028166
8483.332109	0.403173	-102.539062	-161.328125
8483.334111	0.716882	-102.539062	-161.328125
8483.336110	0.958432	-102.539062	-161.328125
8483.338111	0.976936	-102.539062	-161.328125
8483.340111	0.974669	10.721359	0.036773
8484.382125	0.547884	109.277344	224.414062
8484.384128	0.855320	109.277344	224.414062
8484.386128	0.980130	109.277344	224.414062
8484.388127	0.977299	10.750285	0.031347
8485.404138	0.396856	-108.496094	-146.582031
8485.406141	0.710936	-108.496094	-146.582031
8485.408139	0.956571	-108.496094	-146.582031
8485.410139	0.958627	-108.496094	-146.582031
8485.412139	0.975295	10.728245	0.034149
8486.457148	0.451509	110.937500	206.835937
8486.459149	0.763726	110.937500	206.835937
8486.461149	0.971019	110.937500	206.835937
8486.463148	0.976371	110.937500	206.835937
8486.465149	0.974373	10.718098	0.036600
8487.489118	0.495428	-110.839844	-133.398437
8487.491119	0.806467	-110.839844	-133.398437
8487.493121	0.977681	-110.839844	-133.398437
8487.495121	0.976978	10.746758	0.031791
8488.527108	0.762501	125.488281	198.437500
8488.529112	0.970882	125.488281	198.437500
8488.531110	0.976537	125.488281	198.437500
8488.533109	0.974577	10.720349	0.033399
8489.581662	1.232873	-116.210937	-129.492187
8489.583663	0.977626	-116.210937	-129.492187
8489.585664	0.976364	10.740005	0.032640
8490.590241	0.563763	149.707031	201.562500
8490.592244	0.868717	149.707031	201.562500
8490.594245	0.978999	149.707031	201.562500
8490.596244	0.976017	10.736186	0.080386
8491.668855	0.538605	-116.503906	-136.816406
8491.670859	0.847086	-116.503906	-136.816406
8491.672858	0.979256	-116.503906	-136.816406
8491.674858	0.976671	10.743382	0.035682
8492.656895	0.358478	175.976562	211.035156
8492.658895	0.674027	175.976562	211.035156
8492.660895	0.940494	175.976562	211.035156
8492.662897	0.977188	175.976562	211.035156
8492.664896	0.974748	10.722227	0.028054
8493.750972	0.510967	-117.968750	-147.167969
8493.752975	0.821559	-117.968750	-147.167969
8493.754974	0.978263	-117.968750	-147.167969
8493.758974	0.974726	10.721989	0.038218
8494.733048	0.600067	151.660156	228.222656
8494.735049	0.611787	151.660156	228.222656
8494.737050	0.979182	151.660156	228.222656
8494.739051	0.976205	10.738259	0.024990
8495.827662	0.593017	-119.824219	-155.175781
8495.829664	0.891321	-119.824219	-155.175781
8495.831666	0.978752	-119.824219	-155.175781
8495.833665	0.975719	10.732906	0.043268
8496.811727	0.592460	175.292969	230.371094
8496.813728	0.891058	175.292969	230.371094
8496.815729	0.979462	175.292969	230.371094
8496.817729	0.976395	10.740342	0.206797
8497.899756	0.355977	-113.281250	-163.867187
8497.901758	0.671614	-113.281250	-163.867187
8497.903760	0.939527	-113.281250	-163.867187
8497.905760	0.977688	-113.281250	-163.867187
8497.907760	0.977575	10.753325	0.044224
8498.891783	0.401420	158.496094	236.523437
8498.893792	0.715289	158.496094	236.523437
8498.895791	0.958131	158.496094	236.523437
8498.897790	0.977142	158.496094	236.523437
8498.899792	0.974874	10.723610	0.025312
8499.971856	0.276303	-112.792969	-168.066406
8499.973856	0.596092	-112.792969	-168.066406
8499.975855	0.893452	-112.792969	-168.066406
8499.977854	0.978459	-112.792969	-168.066406
8499.979856	0.975507	10.730576	0.043098
8500.972476	0.469817	153.710937	237.304687
8500.974485	0.781477	153.710937	237.304687
8500.976482	0.976435	153.710937	237.304687
8500.978483	0.978858	153.710937	237.304687
8500.980481	0.976638	10.743019	0.024580
8502.046595	0.379780	-106.640625	-171.582031
8502.048598	0.694427	-106.640625	-171.582031
8502.050598	0.949668	-106.640625	-171.582031
8502.052599	0.976983	-106.640625	-171.582031
8502.054598	0.974664	10.721306	0.044158
8503.052685	0.297547	158.300781	236.035156
8503.054686	0.616137	158.300781	236.035156
8503.056687	0.907155	158.300781	236.035156
8503.058687	0.977747	158.300781	236.035156
8503.060688	0.975032	10.725356	0.024978
8504.122741	0.377937	-105.859375	-172.167969
8504.124740	0.692657	-105.859375	-172.167969
8504.126743	0.949174	-105.859375	-172.167969
8504.128742	0.977333	-105.859375	-172.167969
8504.130743	0.975024	10.725267	0.044405
8505.130784	0.445603	145.507812	238.378906
8505.134783	0.971717	145.507812	238.378906
8505.136785	0.978954	145.507812	238.378906
8505.140783	0.975317	10.728484	0.026928
8506.200864	0.524432	-104.589844	-172.851562
8506.202863	0.834186	-104.589844	-172.851562
8506.204865	0.979464	-104.589844	-172.851562
8506.206864	0.977221	10.749426	0.043734
8507.206835	1.244769	150.390625	236.718750
8507.208836	0.817855	150.390625	236.718750
8507.212836	0.976473	150.390625	236.718750
8507.214835	0.974615	10.720765	0.027227
8508.278875	0.329944	-106.835937	-172.265625
8508.280877	0.343451	-106.835937	-172.265625
8508.282878	0.926412	-106.835937	-172.265625
8508.284879	0.977912	-106.835937	-172.265625
8508.286881	0.975243	10.727678	0.043705
8509.282841	0.724715	169.824219	232.519531
8509.284843	0.960940	169.824219	232.519531
8509.288840	0.974672	169.824219	232.519531
8509.290841	0.973247	10.705717	0.025874
8510.360918	0.695402	-111.328125	-170.117187
8510.362923	0.950348	-111.328125	-170.117187
8510.364923	0.977412	-111.328125	-170.117187
8510.366923	0.975156	10.726721	0.043789
8511.357013	0.734113	142.773437	235.644531
8511.359013	0.963837	142.773437	235.644531
8511.361021	0.976791	142.773437	235.644531
8511.363015	0.974638	10.721013	0.024906
8512.441632	0.525131	-115.527344	-167.773437
8512.443634	0.834707	-115.527344	-167.773437
8512.445635	0.978998	-115.527344	-167.773437
8512.447635	0.976807	10.744880	0.045396
8513.429722	0.674185	183.007812	222.949219
8513.431723	0.940418	183.007812	222.949219
8513.433726	0.976890	183.007812	222.949219
8513.437723	0.972893	10.701827	0.024978
8514.521712	0.575921	-117.871094	-160.546875
8514.523715	0.878430	-117.871094	-160.546875
8514.525713	0.979099	-117.871094	-160.546875
8514.527716	0.976089	10.736975	0.148842
8515.505729	0.809366	197.070312	212.988281
8515.507732	0.976839	197.070312	212.988281
8515.509733	0.976018	10.736195	0.025946
8516.601762	0.858904	-119.140625	-150.683594
8516.603764	0.978433	-119.140625	-150.683594
8516.605763	0.975623	10.731852	0.042206
8517.584402	0.404037	176.953125	204.589844
8517.586404	0.414766	176.953125	204.589844
8517.588404	0.958873	176.953125	204.589844
8517.590402	0.977291	176.953125	204.589844
8517.592404	0.974933	10.724266	0.028447
8518.670452	0.419170	-116.699219	-141.894531
8518.672453	0.732407	-116.699219	-141.894531
8518.674453	0.963248	-116.699219	-141.894531
8518.676453	0.976645	-116.699219	-141.894531
8518.678454	0.974451	10.718958	0.038789
8519.670499	0.436882	137.207031	196.484375
8519.672502	0.749516	137.207031	196.484375
8519.674503	0.969120	137.207031	196.484375
8519.676503	0.978026	137.207031	196.484375
8519.678502	0.975901	10.734910	0.031630
8520.735397	0.587800	-116.210937	-136.621094
8520.737398	0.887483	-116.210937	-136.621094
8520.739400	0.979178	-116.210937	-136.621094
8520.741400	0.976124	10.737365	0.192100
8521.759445	0.831435	109.179687	192.382812
8521.761446	0.978169	109.179687	192.382812
8521.763448	0.976090	10.736992	0.036546
8522.802368	0.431659	-109.375000	-140.332031
8522.804368	0.744463	-109.375000	-140.332031
8522.806370	0.966359	-109.375000	-140.332031
8522.808368	0.976284	-109.375000	-140.332031
8522.810369	0.974109	10.715199	0.034796
8523.846373	0.436678	136.035156	192.285156
8523.848374	0.749320	136.035156	192.285156
8523.850375	0.968085	136.035156	192.285156
8523.852376	0.976864	136.035156	192.285156
8523.854377	0.974779	10.722573	0.036337
8524.872450	0.360295	-101.953125	-153.222656
8524.876450	0.941340	-101.953125	-153.222656
8524.878451	0.944717	-101.953125	-153.222656
8524.882451	0.973389	10.707276	0.035757
8525.924455	1.457383	109.082031	209.179687
8525.926456	0.651818	109.082031	209.179687
8525.928457	0.929037	109.082031	209.179687
8525.930457	0.977530	109.082031	209.179687
8525.932456	0.974920	10.724124	0.035461
8526.950533	0.583046	-104.492187	-167.675781
8526.952534	0.883689	-104.492187	-167.675781
8526.954535	0.978072	-104.492187	-167.675781
8526.956534	0.975172	10.726890	0.036306
8528.001074	0.809044	98.144531	224.804687
8528.003075	0.976856	98.144531	224.804687
8528.005077	0.975946	10.735406	0.032197
8529.039124	0.978464	-103.125000	-178.417969
8529.041124	0.975932	-103.125000	-178.417969
8529.043123	0.974066	10.714721	0.038871
8530.065678	0.443968	102.539062	234.375000
8530.067681	0.756304	102.539062	234.375000
8530.069681	0.969520	102.539062	234.375000
8530.071680	0.976402	102.539062	234.375000
8530.073681	0.974384	10.718222	0.031191
8531.120236	0.250823	-107.128906	-181.152344
8531.122238	0.572046	-107.128906	-181.152344
8531.124238	0.875420	-107.128906	-181.152344
8531.126239	0.979034	-107.128906	-181.152344
8531.128239	0.976114	10.737249	0.044395
8532.135204	0.365408	153.417969	228.222656
8532.137207	0.680663	153.417969	228.222656
8532.139205	0.688829	153.417969	228.222656
8532.141208	0.977278	153.417969	228.222656
8532.143209	0.974860	10.723459	0.027426
8533.207275	0.516611	-107.812500	-180.078125
8533.209277	0.826732	-107.812500	-180.078125
8533.211277	0.832485	-107.812500	-180.078125
8533.213277	0.976801	10.744809	0.045450
8534.207324	0.615348	129.785156	232.910156
8534.209326	0.906632	129.785156	232.910156
8534.211324	0.977565	129.785156	232.910156
8534.213327	0.974834	10.723176	0.027445
8535.288294	0.476451	-112.304687	-174.804687
8535.290301	0.787978	-112.304687	-174.804687
8535.292306	0.974855	-112.304687	-174.804687
8535.294305	0.975956	10.735513	0.047705
8536.278342	0.530995	170.898437	222.070312
8536.280343	0.545158	170.898437	222.070312
8536.282342	0.977632	170.898437	222.070312
8536.284343	0.975308	10.728387	0.027912
8537.368334	0.360397	-114.648437	-169.433594
8537.370338	0.675850	-114.648437	-169.433594
8537.372335	0.941428	-114.648437	-169.433594
8537.374338	0.977436	-114.648437	-169.433594
8537.376336	0.974941	10.724346	0.044878
8538.356375	0.890021	193.359375	213.867187
8538.358377	0.978121	193.359375	213.867187
8538.360378	0.975204	10.727243	0.213121
8539.448431	0.417976	-114.648437	-166.113281
8539.450432	0.731188	-114.648437	-166.113281
8539.452433	0.963263	-114.648437	-166.113281
8539.454432	0.977063	-114.648437	-166.113281
8539.456434	0.974882	10.723699	0.042088
8540.432510	0.739863	166.699219	215.136719
8540.434512	0.965250	166.699219	215.136719
8540.436512	0.976545	166.699219	215.136719
8540.438514	0.974333	10.717664	0.025079
8541.527088	0.673235	-118.945312	-162.695312
8541.529089	0.977270	-118.945312	-162.695312
8541.531089	0.976761	10.744366	0.043888
8542.507690	0.585674	184.667969	210.058594
8542.509689	0.885671	184.667969	210.058594
8542.511690	0.978096	184.667969	210.058594
8542.513690	0.975170	10.726871	0.185394
8543.601733	0.411497	-117.480469	-162.109375
8543.603734	0.724868	-117.480469	-162.109375
8543.605735	0.960872	-117.480469	-162.109375
8543.607735	0.976595	-117.480469	-162.109375
8543.609736	0.974319	10.717513	0.045932
8544.587701	0.862814	199.609375	205.957031
8544.589704	0.978075	199.609375	205.957031
8544.591702	0.975355	10.728901	0.028203
8545.681693	0.840603	-118.261719	-162.890625
8545.683695	0.978342	-118.261719	-162.890625
8545.685695	0.975912	10.735034	0.045083
8546.662286	0.463772	190.136719	208.007812
8546.664294	0.775593	190.136719	208.007812
8546.666296	0.973433	190.136719	208.007812
8546.668296	0.976367	190.136719	208.007812
8546.670296	0.974340	10.717744	0.028075
8547.756333	0.448329	-115.820312	-166.503906
8547.758335	0.760680	-115.820312	-166.503906
8547.760335	0.970126	-115.820312	-166.503906
8547.762333	0.976093	-115.820312	-166.503906
8547.764337	0.974011	10.714118	0.043595
8548.740357	0.603434	155.859375	216.308594
8548.742360	0.898605	155.859375	216.308594
8548.744360	0.978461	155.859375	216.308594
8548.746360	0.975471	10.730177	0.026823
8549.832955	0.441200	-116.210937	-170.312500
8549.834956	0.753723	-116.210937	-170.312500
8549.836956	0.968564	-116.210937	-170.312500
8549.838957	0.976121	-116.210937	-170.312500
8549.840956	0.974003	10.714030	0.044533
8550.818986	0.748069	194.335937	212.695312
8550.820986	0.967247	194.335937	212.695312
8550.822991	0.976242	194.335937	212.695312
8550.824994	0.974103	10.715137	0.025538
8551.908973	0.577941	-113.671875	-175.683594
8551.910975	0.880207	-113.671875	-175.683594
8551.912974	0.979952	-113.671875	-175.683594
8551.914976	0.976923	10.746156	0.164043
8552.897004	0.314178	179.394531	217.773437
8552.899008	0.631777	179.394531	217.773437
8552.901007	0.917318	179.394531	217.773437
8552.903008	0.978077	179.394531	217.773437
8552.905006	0.975355	10.728901	0.028517
8553.983063	0.655443	-113.183594	-180.859375
8553.985065	0.930959	-113.183594	-180.859375
8553.987065	0.977385	-113.183594	-180.859375
8553.989065	0.974820	10.723025	0.048460
8554.983066	0.744100	172.851562	219.726562
8554.985069	0.966114	172.851562	219.726562
8554.987068	0.976018	172.851562	219.726562
8554.989067	0.973944	10.713383	0.028203
8556.051038	0.333177	-106.152344	-187.207031
8556.055039	0.927853	-106.152344	-187.207031
8556.057039	0.977694	-106.152344	-187.207031
8556.059040	0.975110	10.726207	0.045489
8557.065051	0.534648	126.269531	226.562500
8557.067052	0.843447	126.269531	226.562500
8557.071049	0.976638	126.269531	226.562500
8557.073051	0.974887	10.723752	0.030402
8558.123063	0.570981	-103.320312	-188.769531
8558.125064	0.874761	-103.320312	-188.769531
8558.129063	0.977322	-103.320312	-188.769531
8558.131065	0.975612	10.731728	0.123911
8559.153695	0.874208	110.253906	223.242187
8559.155699	0.978910	110.253906	223.242187
8559.157698	0.975938	10.735317	0.101897
8560.189790	0.373450	-101.464844	-185.253906
8560.193790	0.947266	-101.464844	-185.253906
8560.195792	0.977291	-101.464844	-185.253906
8560.197794	0.974823	10.723052	0.041897
8561.235811	0.536187	125.781250	209.179687
8561.237813	0.844891	125.781250	209.179687
8561.239814	0.979115	125.781250	209.179687
8561.241814	0.976569	10.742256	0.033797
8562.261865	0.616013	-98.925781	-175.976562
8562.263865	0.907101	-98.925781	-175.976562
8562.267865	0.974748	-98.925781	-175.976562
8562.269866	0.973124	10.704361	0.037496
8563.313928	0.360184	103.613281	197.265625
8563.315930	0.675632	103.613281	197.265625
8563.317930	0.941555	103.613281	197.265625
8563.319930	0.977617	103.613281	197.265625
8563.321930	0.975149	10.726642	0.037804
8564.339988	0.684307	-103.320312	-162.988281
8564.341991	0.945382	-103.320312	-162.988281
8564.343990	0.977373	-103.320312	-162.988281
8564.345990	0.974966	10.724621	0.036903
8565.388010	0.436954	108.691406	183.886719
8565.390012	0.749465	108.691406	183.886719
8565.392014	0.967877	108.691406	183.886719
8565.394013	0.976446	108.691406	183.886719
8565.396013	0.974356	10.717912	0.037453
8566.422068	0.408223	-110.351562	-152.441406
8566.424068	0.721779	-110.351562	-152.441406
8566.426069	0.959902	-110.351562	-152.441406
8566.428068	0.976870	-110.351562	-152.441406
8566.430068	0.974604	10.720641	0.038179
8567.458130	0.371866	123.339844	178.125000
8567.460134	0.686720	123.339844	178.125000
8567.462133	0.946121	123.339844	178.125000
8567.464133	0.976627	123.339844	178.125000
8567.466135	0.974227	10.716502	0.037149
8568.510161	0.513073	-113.671875	-149.023437
8568.512164	0.823257	-113.671875	-149.023437
8568.514164	0.977311	-113.671875	-149.023437
8568.516162	0.975631	10.731941	0.039091
8569.524224	0.399743	134.863281	180.664062
8569.526225	0.713488	134.863281	180.664062
8569.528225	0.956548	134.863281	180.664062
8569.530227	0.976161	134.863281	180.664062
8569.532226	0.973989	10.713879	0.036459
8570.598813	0.705714	-119.238281	-151.660156
8570.600816	0.954059	-119.238281	-151.660156
8570.602815	0.976618	-119.238281	-151.660156
8570.604814	0.974317	10.717486	0.039983
8571.595377	0.739131	138.281250	189.941406
8571.597382	0.964649	138.281250	189.941406
8571.599381	0.975967	138.281250	189.941406
8571.601380	0.973814	10.711956	0.031418
8572.680362	1.617611	-118.164062	-159.277344
8572.682363	0.740007	-118.164062	-159.277344
8572.684365	0.965414	-118.164062	-159.277344
8572.686368	0.976582	-118.164062	-159.277344
8572.688371	0.974362	10.717983	0.043815
8573.666441	0.662986	198.046875	191.992187
8573.668442	0.935102	198.046875	191.992187
8573.670441	0.977612	198.046875	191.992187
8573.672442	0.975046	10.725507	0.578311
8574.758443	0.322444	-117.968750	-166.992187
8574.760445	0.639603	-117.968750	-166.992187
8574.762445	0.922026	-117.968750	-166.992187
8574.764445	0.977744	-117.968750	-166.992187
8574.766446	0.975103	10.726136	0.046843
8575.740423	0.401102	152.832031	206.152344
8575.742425	0.714891	152.832031	206.152344
8575.744426	0.957164	152.832031	206.152344
8575.746425	0.976140	152.832031	206.152344
8575.748427	0.973896	10.712860	0.029158
8576.839352	0.669902	-119.238281	-172.949219
8576.841355	0.938464	-119.238281	-172.949219
8576.843354	0.977361	-119.238281	-172.949219
8576.845355	0.974851	10.723362	0.047021
8577.819436	0.366837	188.085937	205.078125
8577.821439	0.681887	188.085937	205.078125
8577.823438	0.944233	188.085937	205.078125
8577.825440	0.977255	188.085937	205.078125
8577.827441	0.974903	10.723928	0.028330
8578.913545	0.360562	-113.964844	-178.613281
8578.915545	0.675938	-113.964844	-178.613281
8578.917546	0.685069	-113.964844	-178.613281
8578.919545	0.977463	-113.964844	-178.613281
8578.921545	0.974993	10.724921	0.046336
8579.899602	0.720463	197.949219	205.566406
8579.901605	0.825467	197.949219	205.566406
8579.903604	0.977451	197.949219	205.566406
8579.905605	0.975703	10.732730	0.027700
8580.989660	0.353120	-112.890625	-180.859375
8580.991661	0.668957	-112.890625	-180.859375
8580.993661	0.677814	-112.890625	-180.859375
8580.995661	0.976712	-112.890625	-180.859375
8580.997661	0.974249	10.716742	0.048053
8581.975717	0.343337	195.898437	206.640625
8581.977718	0.659512	195.898437	206.640625
8581.979718	0.933029	195.898437	206.640625
8581.981717	0.977216	195.898437	206.640625
8581.983718	0.974850	10.723353	0.028019
8583.067771	0.580675	-111.914062	-181.542969
8583.069774	0.882321	-111.914062	-181.542969
8583.071779	0.979876	-111.914062	-181.542969
8583.073777	0.976812	10.744933	0.180369
8584.053801	0.649648	150.195312	212.792969
8584.055804	0.660310	150.195312	212.792969
8584.057802	0.977453	150.195312	212.792969
8584.059803	0.974947	10.724417	0.029892
8585.146456	0.735905	-116.601562	-178.125000
8585.148460	0.963967	-116.601562	-178.125000
8585.150465	0.976224	-116.601562	-178.125000
8585.152467	0.974109	10.715199	0.046936
8586.131060	0.818526	180.273437	205.078125
8586.133062	0.977503	180.273437	205.078125
8586.135063	0.976049	10.736541	0.028009
8587.223101	0.491664	-115.234375	-175.976562
8587.225104	0.802806	-115.234375	-175.976562
8587.227105	0.977247	-115.234375	-175.976562
8587.229106	0.976833	10.745164	0.045197
8588.207175	0.653993	204.296875	196.679687
8588.209177	0.929992	204.296875	196.679687
8588.211178	0.977383	204.296875	196.679687
8588.213177	0.974787	10.722653	0.530251
8589.301294	0.322480	-116.308594	-170.703125
8589.303296	0.639792	-116.308594	-170.703125
8589.305296	0.921941	-116.308594	-170.703125
8589.307296	0.977578	-116.308594	-170.703125
8589.309296	0.974852	10.723371	0.045946
8590.285337	0.403310	152.929687	195.800781
8590.287340	0.717035	152.929687	195.800781
8590.289340	0.957858	152.929687	195.800781
8590.291339	0.976282	152.929687	195.800781
8590.293339	0.974079	10.714871	0.029255
8591.375357	0.314605	-117.285156	-163.281250
8591.377359	0.632110	-117.285156	-163.281250
8591.381356	0.979807	-117.285156	-163.281250
8591.383367	0.976980	-117.285156	-163.281250
8591.385369	0.975446	10.729911	0.044618
8592.365421	0.617175	180.371094	182.226562
8592.367423	0.907804	180.371094	182.226562
8592.369424	0.977752	180.371094	182.226562
8592.371423	0.974939	10.724328	0.343024
8593.447470	0.567474	-118.652344	-155.957031
8593.449472	0.871826	-118.652344	-155.957031
8593.451472	0.876040	-118.652344	-155.957031
8593.453473	0.976183	10.738011	0.042783
8594.450041	0.579471	159.667969	175.000000
8594.452042	0.881037	159.667969	175.000000
8594.454041	0.978988	159.667969	175.000000
8594.456042	0.975976	10.735734	0.156234
8595.516110	0.432391	-111.035156	-154.492187
8595.518110	0.745031	-111.035156	-154.492187
8595.520111	0.966408	-111.035156	-154.492187
8595.522111	0.976123	-111.035156	-154.492187
8595.524111	0.974019	10.714208	0.040317
8596.538151	0.606949	116.894531	173.632812
8596.540153	0.901067	116.894531	173.632812
8596.542152	0.977923	116.894531	173.632812
8596.546151	0.973432	10.707755	0.039331
8597.582742	0.464016	-108.593750	-157.421875
8597.584743	0.775824	-108.593750	-157.421875
8597.586743	0.973179	-108.593750	-157.421875
8597.588743	0.976213	-108.593750	-157.421875
8597.590744	0.974232	10.716547	0.040030
8598.622795	0.243784	82.910156	178.710937
8598.624796	0.565516	82.910156	178.710937
8598.626797	0.870100	82.910156	178.710937
8598.628798	0.979507	82.910156	178.710937
8598.630796	0.976545	10.741991	0.040374
8599.656820	0.853278	-106.640625	-167.187500
8599.658823	0.978328	-106.640625	-167.187500
8599.660822	0.975615	10.731763	0.038131
8600.705300	0.524412	82.617187	187.890625
8600.707303	0.833998	82.617187	187.890625
8600.709303	0.978717	82.617187	187.890625
8600.711304	0.976524	10.741769	0.041342
8601.725896	0.306831	-101.269531	-180.664062
8601.727898	0.624775	-101.269531	-180.664062
8601.729899	0.912668	-101.269531	-180.664062
8601.731900	0.977289	-101.269531	-180.664062
8601.733897	0.977142	10.748558	0.041545
8602.781933	0.516930	89.648437	199.316406
8602.783935	0.827096	89.648437	199.316406
8602.785936	0.978614	89.648437	199.316406
8602.787935	0.976697	10.743666	0.037758
8603.808006	0.522000	-97.851562	-192.773437
8603.810007	0.831738	-97.851562	-192.773437
8603.812007	0.978662	-97.851562	-192.773437
8603.814008	0.976657	10.743231	0.043195
8604.854033	0.444183	122.851562	204.785156
8604.856035	0.756474	122.851562	204.785156
8604.858035	0.969886	122.851562	204.785156
8604.860035	0.977001	122.851562	204.785156
8604.862036	0.974843	10.723273	0.035776
8605.892106	0.563174	-101.855469	-200.097656
8605.894109	0.868889	-101.855469	-200.097656
8605.896109	0.983133	-101.855469	-200.097656
8605.898107	0.980369	10.784060	0.092714
8606.924732	0.471377	110.742187	212.988281
8606.926743	0.521025	110.742187	212.988281
8606.928739	0.976084	110.742187	212.988281
8606.932738	0.976162	110.742187	212.988281
8606.934738	0.974866	10.723530	0.035205
8607.976728	0.526510	-100.390625	-203.125000
8607.978730	0.836046	-100.390625	-203.125000
8607.980729	0.979299	-100.390625	-203.125000
8607.982729	0.977030	10.747334	0.045496
8608.996799	0.711923	114.160156	216.308594
8608.998801	0.956151	114.160156	216.308594
8609.000800	0.976284	114.160156	216.308594
8609.002800	0.974095	10.715050	0.031301
8610.057416	0.351035	-103.808594	-202.636719
8610.059419	0.666720	-103.808594	-202.636719
8610.061418	0.936910	-103.808594	-202.636719
8610.065418	0.974926	-103.808594	-202.636719
8610.067418	0.973396	10.707356	0.048683
8611.067457	0.409937	164.648437	208.984375
8611.069459	0.723274	164.648437	208.984375
8611.071459	0.960367	164.648437	208.984375
8611.073459	0.976698	164.648437	208.984375
8611.075460	0.974555	10.720110	0.032354
8612.139468	0.392646	-106.738281	-201.269531
8612.143467	0.954656	-106.738281	-201.269531
8612.145469	0.976865	-106.738281	-201.269531
8612.147468	0.974664	10.721306	0.048443
8613.141528	0.646868	131.250000	214.062500
8613.143529	0.926138	131.250000	214.062500
8613.145532	0.977629	131.250000	214.062500
8613.147530	0.975032	10.725348	0.031029
8614.222159	0.849686	-106.542969	-199.414062
8614.224161	0.977705	-106.542969	-199.414062
8614.226161	0.975144	10.726587	0.049562
8615.214139	0.327851	138.378906	211.816406
8615.216141	0.644687	138.378906	211.816406
8615.218141	0.924644	138.378906	211.816406
8615.220142	0.977027	138.378906	211.816406
8615.222139	0.974436	10.718798	0.032693
8616.300261	0.757541	-107.128906	-198.535156
8616.302263	0.969454	-107.128906	-198.535156
8616.304262	0.976167	-107.128906	-198.535156
8616.306263	0.974091	10.714996	0.048113
8617.294245	0.860332	154.101562	208.593750
8617.296246	0.979012	154.101562	208.593750
8617.298247	0.976152	10.737675	0.030146
8618.376790	0.411987	-107.421875	-198.535156
8618.378792	0.725327	-107.421875	-198.535156
8618.380793	0.961122	-107.421875	-198.535156
8618.382795	0.976862	-107.421875	-198.535156
8618.384795	0.974751	10.722263	0.048920
8619.372819	0.838913	156.152344	207.910156
8619.374821	0.977523	156.152344	207.910156
8619.378818	0.973403	10.707437	0.030928
8620.452834	0.310627	-111.425781	-198.144531
8620.454835	0.628428	-111.425781	-198.144531
8620.456835	0.915083	-111.425781	-198.144531
8620.458836	0.977651	-111.425781	-198.144531
8620.460837	0.974845	10.723300	0.049937
8621.448873	0.587050	136.328125	211.035156
8621.450872	0.886547	136.328125	211.035156
8621.452873	0.978058	136.328125	211.035156
8621.454872	0.975246	10.727705	0.031822
8622.527404	0.300098	-106.738281	-202.050781
8622.529406	0.618382	-106.738281	-202.050781
8622.531406	0.908639	-106.738281	-202.050781
8622.533406	0.977735	-106.738281	-202.050781
8622.535406	0.975028	10.725304	0.049890
8623.527385	0.553847	124.609375	212.500000
8623.529388	0.566962	124.609375	212.500000
8623.531387	0.978773	124.609375	212.500000
8623.533387	0.978720	10.765919	0.031101
8624.603431	0.525328	-103.613281	-205.078125
8624.605432	0.834934	-103.613281	-205.078125
8624.607431	0.978843	-103.613281	-205.078125
8624.609432	0.976699	10.743692	0.046668
8625.609533	0.449510	165.039062	205.468750
8625.611534	0.761541	165.039062	205.468750
8625.613536	0.970590	165.039062	205.468750
8625.615536	0.976478	165.039062	205.468750
8625.617535	0.974443	10.718878	0.032668
8626.679505	0.977220	-100.390625	-208.203125
8626.681507	0.974428	10.718709	0.312068
8627.691486	0.311102	108.691406	212.304687
8627.693487	0.628803	108.691406	212.304687
8627.695487	0.915195	108.691406	212.304687
8627.697487	0.977293	108.691406	212.304687
8627.699487	0.974552	10.720075	0.033851
8628.746436	0.509338	-103.515625	-208.007812
8628.748438	0.819730	-103.515625	-208.007812
8628.750438	0.824068	-103.515625	-208.007812
8628.752437	0.976769	10.744454	0.047286
8629.777346	0.632265	104.687500	208.007812
8629.779348	0.917216	104.687500	208.007812
8629.781349	0.977181	104.687500	208.007812
8629.783348	0.974497	10.719471	0.035558
8630.815933	0.346491	-96.484375	-206.152344
8630.817935	0.662452	-96.484375	-206.152344
8630.819935	0.934452	-96.484375	-206.152344
8630.821935	0.976829	-96.484375	-206.152344
8630.823935	0.974414	10.718558	0.045762
8631.861915	0.583455	126.855469	197.070312
8631.863916	0.884067	126.855469	197.070312
8631.867915	0.975554	126.855469	197.070312
8631.869918	0.973841	10.712249	0.183237
8632.887975	0.425777	-96.679687	-198.632812
8632.889979	0.738580	-96.679687	-198.632812
8632.891977	0.964862	-96.679687	-198.632812
8632.893977	0.976399	-96.679687	-198.632812
8632.895978	0.974261	10.716866	0.043685
8633.940028	0.326353	106.445312	188.574219
8633.942031	0.643255	106.445312	188.574219
8633.946029	0.976979	106.445312	188.574219
8633.948030	0.974287	106.445312	188.574219
8633.950031	0.972597	10.698565	0.037797
8634.966104	0.811832	-104.296875	-186.914062
8634.968105	0.976416	-104.296875	-186.914062
8634.970106	0.975442	10.729867	0.041507
8636.017053	0.384030	91.308594	179.101562
8636.019057	0.698379	91.308594	179.101562
8636.021056	0.950999	91.308594	179.101562
8636.023055	0.976535	91.308594	179.101562
8636.025060	0.974293	10.717220	0.039894
8637.047132	0.696106	-100.585937	-175.195312
8637.049134	0.950650	-100.585937	-175.195312
8637.051133	0.977439	-100.585937	-175.195312
8637.053133	0.975204	10.727243	0.038854
8638.089208	0.479917	126.464844	167.089844
8638.091214	0.791260	126.464844	167.089844
8638.093214	0.974940	126.464844	167.089844
8638.095215	0.975758	10.733341	0.040627
8639.129255	0.588114	-110.546875	-166.113281
8639.131259	0.887574	-110.546875	-166.113281
8639.133257	0.978285	-110.546875	-166.113281
8639.135257	0.975365	10.729016	0.040599
8640.161798	0.482262	117.968750	164.648437
8640.163803	0.793642	117.968750	164.648437
8640.165800	0.976176	117.968750	164.648437
8640.167801	0.976690	10.743594	0.039020
8641.214354	0.462779	-114.355469	-163.183594
8641.216355	0.774667	-114.355469	-163.183594
8641.218355	0.972980	-114.355469	-163.183594
8641.220356	0.976219	-114.355469	-163.183594
8641.222354	0.974215	10.716361	0.042403
8642.227395	0.509672	137.792969	166.015625
8642.229395	0.820179	137.792969	166.015625
8642.231395	0.977191	137.792969	166.015625
8642.235393	0.973726	10.710981	0.038804
8643.299460	0.499579	-113.867187	-167.285156
8643.301461	0.810385	-113.867187	-167.285156
8643.303463	0.977582	-113.867187	-167.285156
8643.305462	0.976615	10.742762	0.044111
8644.299441	0.587886	131.933594	173.144531
8644.301451	0.887184	131.933594	173.144531
8644.303457	0.977693	131.933594	173.144531
8644.305454	0.974835	10.723185	0.034932
8645.382376	0.353496	-114.843750	-172.167969
8645.384375	0.669146	-114.843750	-172.167969
8645.386376	0.937884	-114.843750	-172.167969
8645.388376	0.977048	-114.843750	-172.167969
8645.390374	0.974519	10.719710	0.046939
8646.370363	0.325947	185.058594	174.511719
8646.372366	0.642826	185.058594	174.511719
8646.374367	0.923643	185.058594	174.511719
8646.376365	0.977242	185.058594	174.511719
8646.378366	0.974503	10.719534	0.034202
8647.462445	0.405755	-115.527344	-177.832031
8647.464447	0.719278	-115.527344	-177.832031
8647.466446	0.958888	-115.527344	-177.832031
8647.468446	0.976321	-115.527344	-177.832031
8647.470445	0.974016	10.714171	0.047070
8648.446489	0.564140	148.339844	184.472656
8648.448491	0.868734	148.339844	184.472656
8648.450492	0.978289	148.339844	184.472656
8648.452490	0.975486	10.730346	0.031794
8649.541427	0.280471	-113.476562	-183.691406
8649.543429	0.599943	-113.476562	-183.691406
8649.545429	0.895993	-113.476562	-183.691406
8649.547430	0.977867	-113.476562	-183.691406
8649.549428	0.974971	10.724682	0.047699
8650.523484	0.615278	163.378906	186.621094
8650.525484	0.906403	163.378906	186.621094
8650.527484	0.977436	163.378906	186.621094
8650.529484	0.974713	10.721847	0.031549
8651.622042	0.604619	-118.066406	-185.058594
8651.624043	0.978006	-118.066406	-185.058594
8651.626043	0.975076	10.725835	0.047386
8652.600613	0.526703	186.816406	184.863281
8652.602614	0.835947	186.816406	184.863281
8652.604615	0.977312	186.816406	184.863281
8652.608613	0.973207	10.705275	0.032296
8653.696644	0.422147	-115.332031	-187.597656
8653.698648	0.735169	-115.332031	-187.597656
8653.700648	0.963888	-115.332031	-187.597656
8653.702645	0.976448	-115.332031	-187.597656
8653.706644	0.972843	10.701277	0.048897
8654.676679	0.432707	182.714844	184.765625
8654.678681	0.745313	182.714844	184.765625
8654.680678	0.966438	182.714844	184.765625
8654.682681	0.976084	182.714844	184.765625
8654.684678	0.973944	10.713383	0.031433
8655.772753	0.329059	-115.917969	-186.621094
8655.774753	0.645869	-115.917969	-186.621094
8655.776752	0.925460	-115.917969	-186.621094
8655.778754	0.977128	-115.917969	-186.621094
8655.780754	0.974551	10.720057	0.050357
8656.752839	0.350113	160.937500	184.765625
8656.754841	0.665807	160.937500	184.765625
8656.756841	0.936197	160.937500	184.765625
8656.758840	0.976956	160.937500	184.765625
8656.760841	0.974474	10.719214	0.032645
8657.851457	0.489940	-113.378906	-185.449219
8657.853457	0.801096	-113.378906	-185.449219
8657.855457	0.976435	-113.378906	-185.449219
8657.857457	0.976280	10.739083	0.049124
8658.833939	0.715561	154.101562	180.664062
8658.835940	0.959988	154.101562	180.664062
8658.837938	0.976300	154.101562	180.664062
8658.839939	0.974052	10.714571	0.031295
8659.932588	0.978395	-119.335937	-179.101562
8659.934590	0.975536	10.730895	0.086042
8660.914635	0.551534	178.710937	171.191406
8660.916637	0.858208	178.710937	171.191406
8660.918637	0.978514	178.710937	171.191406
8660.920637	0.975867	10.734537	0.032538
8661.998604	0.317428	-114.550781	-175.390625
8662.000605	0.634799	-114.550781	-175.390625
8662.002606	0.919018	-114.550781	-175.390625
8662.004607	0.977550	-114.550781	-175.390625
8662.006606	0.974788	10.722671	0.047401
8662.994653	0.436178	162.304687	165.722656
8662.996654	0.748699	162.304687	165.722656
8662.998655	0.966919	162.304687	165.722656
8663.000655	0.968511	162.304687	165.722656
8663.002655	0.973445	10.707897	0.035299
8664.072700	0.558752	-114.355469	-170.800781
8664.074701	0.864411	-114.355469	-170.800781
8664.076701	0.978626	-114.355469	-170.800781
8664.078700	0.975756	10.733315	0.059484
8665.078755	0.477054	164.746094	158.789062
8665.080762	0.498140	164.746094	158.789062
8665.082769	0.974580	164.746094	158.789062
8665.086765	0.973624	164.746094	158.789062
8665.088769	0.972214	10.694356	0.037320
8666.142792	0.653489	-114.062500	-169.335937
8666.144793	0.929656	-114.062500	-169.335937
8666.148793	0.974565	-114.062500	-169.335937
8666.150793	0.972956	10.702518	0.043565
8667.163402	0.443256	134.472656	158.691406
8667.165403	0.755630	134.472656	158.691406
8667.167405	0.968929	134.472656	158.691406
8667.169404	0.976000	134.472656	158.691406
8667.171404	0.973893	10.712825	0.039946
8668.217495	0.975785	-104.003906	-174.316406
8668.219497	0.973937	10.713312	0.040098
8669.249541	0.482917	94.921875	164.453125
8669.251543	0.794186	94.921875	164.453125
8669.253542	0.800516	94.921875	164.453125
8669.255544	0.975780	10.733580	0.041314
8670.281614	0.464218	-104.980469	-183.105469
8670.283615	0.775837	-104.980469	-183.105469
8670.285615	0.972551	-104.980469	-183.105469
8670.291613	0.971899	-104.980469	-183.105469
8670.293616	0.970928	10.680202	0.042371
8671.331600	0.684914	116.113281	169.726562
8671.333602	0.945152	116.113281	169.726562
8671.335603	0.976434	116.113281	169.726562
8671.337602	0.974153	10.715688	0.040029
8672.357627	0.521094	-99.121094	-195.507812
8672.361630	0.835521	-99.121094	-195.507812
8672.363629	0.975399	-99.121094	-195.507812
8672.365630	0.973571	10.709280	0.041366
8673.409708	0.588290	114.941406	178.515625
8673.411710	0.887625	114.941406	178.515625
8673.413711	0.978381	114.941406	178.515625
8673.417709	0.973986	10.713843	0.039566
8674.435828	0.759054	-96.582031	-207.617187
8674.437827	0.969546	-96.582031	-207.617187
8674.439828	0.975892	-96.582031	-207.617187
8674.441830	0.973856	10.712417	0.043138
8675.483817	1.815300	107.421875	187.890625
8675.485819	0.818866	107.421875	187.890625
8675.487819	0.977769	107.421875	187.890625
8675.489819	0.976231	10.738544	0.038366
8676.515863	0.485788	-96.972656	-215.722656
8676.517865	0.796970	-96.972656	-215.722656
8676.519866	0.976430	-96.972656	-215.722656
8676.521865	0.976627	10.742894	0.044232
8677.553919	0.275146	89.648437	197.167969
8677.555922	0.594840	89.648437	197.167969
8677.557920	0.892416	89.648437	197.167969
8677.561919	0.974942	89.648437	197.167969
8677.565919	0.971947	10.691422	0.038448
8678.598502	0.617200	-96.386719	-220.605469
8678.600504	0.907741	-96.386719	-220.605469
8678.602504	0.977623	-96.386719	-220.605469
8678.604505	0.974858	10.723442	0.360247
8679.628552	0.442576	116.503906	197.753906
8679.630552	0.754819	116.503906	197.753906
8679.632552	0.968895	116.503906	197.753906
8679.634554	0.976167	116.503906	197.753906
8679.636552	0.974043	10.714473	0.036518
8680.680492	0.649594	-100.195312	-222.070312
8680.684495	0.977022	-100.195312	-222.070312
8680.686494	0.974410	-100.195312	-222.070312
8680.688496	0.972793	10.700727	0.048266
8681.702562	0.668302	117.773437	200.195312
8681.706564	0.976880	117.773437	200.195312
8681.708565	0.974406	117.773437	200.195312
8681.710566	0.972754	10.700294	0.036114
8682.761183	0.794065	-104.492187	-221.289062
8682.763182	0.976146	-104.492187	-221.289062
8682.765183	0.976736	10.744100	0.048348
8683.777155	0.661974	160.058594	195.312500
8683.779157	0.934503	160.058594	195.312500
8683.781156	0.977644	160.058594	195.312500
8683.783155	0.975246	10.727705	0.035067
8684.841179	0.674947	-100.390625	-222.363281
8684.845179	0.977013	-100.390625	-222.363281
8684.847181	0.974529	-100.390625	-222.363281
8684.849180	0.972961	10.702571	0.048639
8685.851223	0.571517	145.312500	197.851562
8685.853227	0.875692	145.312500	197.851562
8685.855225	0.982774	145.312500	197.851562
8685.857226	0.979843	10.778273	0.119379
8686.919263	0.734324	-104.882812	-221.289062
8686.921266	0.964987	-104.882812	-221.289062
8686.923266	0.978365	-104.882812	-221.289062
8686.925265	0.976004	10.736044	0.048682
